#lambda/nm	C1
208.295	539.4
208.67	489.8
209.045	450.8
209.419	450.2
209.794	691
210.169	664.8
210.544	809.8
210.919	695
211.295	674.8
211.67	686.8
212.045	689.8
212.421	681.2
212.796	733
213.172	683.6
213.547	687.4
213.923	676.8
214.299	675.8
214.675	693.4
215.051	683.6
215.427	692.8
215.803	710.2
216.179	692.4
216.555	672.8
216.932	691.2
217.308	687
217.684	680.8
218.061	685
218.438	695.4
218.814	675.4
219.191	681.8
219.568	682.6
219.945	686
220.322	695.6
220.699	681.8
221.076	694.2
221.453	684.8
221.83	680.2
222.208	684.4
222.585	678.6
222.962	697
223.34	692
223.717	686
224.095	683.4
224.473	681
224.851	677.6
225.229	672
225.607	703.8
225.985	673.8
226.363	676.4
226.741	698
227.119	692.8
227.497	695.2
227.876	669.6
228.254	702.6
228.633	685.8
229.011	687
229.39	701
229.769	693.4
230.148	701.4
230.527	716.2
230.905	694.4
231.284	688.2
231.664	677.6
232.043	707
232.422	697.8
232.801	680.4
233.181	692.4
233.56	688.6
233.94	695.2
234.319	681.8
234.699	684.8
235.079	743.2
235.458	724
235.838	710.4
236.218	676.6
236.598	673
236.978	685
237.358	676.2
237.738	682.8
238.119	698.4
238.499	675.4
238.88	693.2
239.26	707.2
239.641	665
240.021	683.4
240.402	689.2
240.783	685
241.163	679
241.544	688
241.925	692.2
242.306	697.8
242.687	681.2
243.069	686.8
243.45	697.8
243.831	676.6
244.212	689.6
244.594	727.4
244.975	697.4
245.357	691.6
245.739	680
246.12	685.2
246.502	710.2
246.884	690.2
247.266	690
247.648	690
248.03	721.6
248.412	699.6
248.794	697.6
249.176	686.2
249.559	704.6
249.941	674.8
250.323	673.6
250.706	681.2
251.089	689.2
251.471	699
251.854	679
252.237	678.4
252.62	701.8
253.002	688.2
253.385	689.8
253.769	700.6
254.152	681
254.535	695.6
254.918	671.6
255.301	682.2
255.685	677.8
256.068	677.4
256.452	714.6
256.835	695
257.219	692.6
257.603	692
257.986	676.2
258.37	695.6
258.754	674.6
259.138	692.8
259.522	702.4
259.906	684
260.29	692.4
260.675	689.4
261.059	687.4
261.443	678.4
261.828	697.4
262.212	702.8
262.597	676.2
262.981	695.2
263.366	694
263.751	690.6
264.136	679.8
264.521	689.8
264.906	675
265.291	706
265.676	678.6
266.061	697.8
266.446	709.6
266.831	694
267.217	705.2
267.602	694.8
267.987	688.8
268.373	690.8
268.759	704.4
269.144	693.4
269.53	684.6
269.916	690
270.302	679.4
270.688	698.4
271.074	690.8
271.46	706.4
271.846	724.2
272.232	689
272.618	690.4
273.004	691.2
273.391	710.8
273.777	705
274.164	696.8
274.55	707.8
274.937	694.4
275.324	691
275.71	699.4
276.097	688.6
276.484	679.8
276.871	694.6
277.258	695
277.645	682.6
278.032	689.4
278.419	688.4
278.807	693.6
279.194	675.4
279.581	681.4
279.969	693.2
280.356	683
280.744	699.6
281.131	721.8
281.519	698.8
281.907	691.4
282.295	689.2
282.682	707.4
283.07	700.8
283.458	704.2
283.846	696.8
284.235	711.8
284.623	698
285.011	680.4
285.399	693.4
285.788	693.6
286.176	682.8
286.565	706.6
286.953	684.6
287.342	695.4
287.731	678.4
288.119	686.2
288.508	682
288.897	689.8
289.286	677.4
289.675	678.2
290.064	698.8
290.453	688.4
290.821	688.2
291.21	700.2
291.599	676.8
291.989	690.2
292.378	694.2
292.768	713
293.157	691.4
293.547	701.6
293.936	692.2
294.326	677.4
294.716	691
295.106	683.4
295.496	694.6
295.886	690.4
296.276	683.8
296.666	677.2
297.056	671.4
297.446	673.6
297.836	715.6
298.227	688.2
298.617	695.4
299.008	703.2
299.398	684.6
299.789	687.2
300.179	689.2
300.57	704.6
300.961	684.2
301.352	686
301.742	700.6
302.133	692.4
302.524	687.4
302.915	698.6
303.307	677.4
303.698	700
304.089	697
304.48	693.4
304.872	699.4
305.263	689.8
305.655	685.4
306.046	700.6
306.438	704.2
306.829	688.8
307.221	703.4
307.613	697.4
308.005	707.2
308.397	707.6
308.789	718.6
309.181	726
309.573	708.4
309.965	697.6
310.357	686.6
310.749	707.6
311.142	680
311.534	684.8
311.926	697
312.319	692.6
312.711	689.4
313.104	703.6
313.497	692.4
313.889	739.6
314.282	708.4
314.675	717.8
315.068	686.2
315.461	704.6
315.854	725.4
316.247	692.2
316.64	687.8
317.033	699.2
317.405	702.4
317.798	690.8
318.192	696
318.585	686.6
318.979	699.2
319.372	687.4
319.766	689
320.16	699.2
320.553	704.8
320.947	713.4
321.341	684.2
321.735	688.8
322.129	674.2
322.523	713.8
322.917	678.8
323.311	694
323.705	698.2
324.099	703.2
324.494	709.8
324.888	698.8
325.282	697.4
325.677	710.6
326.071	697
326.466	699.2
326.861	701.8
327.255	699.6
327.65	712.2
328.045	711
328.44	697.8
328.835	693.2
329.23	682.2
329.625	723.8
330.02	684
330.415	711.2
330.81	693.4
331.206	698.8
331.601	687.8
331.996	700.8
332.37	713.4
332.766	673.2
333.161	722.6
333.557	688
333.953	686.8
334.348	1191.2
334.744	703
335.14	696.8
335.536	694.8
335.932	715.4
336.328	682.4
336.724	705.8
337.12	693
337.516	696.8
337.913	689.2
338.309	710.4
338.705	694.2
339.102	716
339.498	679.6
339.895	707.8
340.291	684.8
340.688	698.6
341.085	687.6
341.481	686.2
341.878	698
342.275	717.6
342.672	672
343.069	688
343.466	680.8
343.842	697.2
344.239	679.8
344.636	695
345.033	682.6
345.431	681
345.828	687.8
346.225	683.4
346.623	733.2
347.02	693.2
347.418	702.4
347.816	708.2
348.213	682.4
348.611	699.6
349.009	691.4
349.407	705
349.805	681.6
350.203	675.4
350.601	704.2
350.999	693.6
351.397	747
351.795	687.6
352.193	701.8
352.57	707.6
352.969	704.2
353.367	682.8
353.766	690.4
354.164	686.8
354.563	698.6
354.961	681.4
355.36	677.8
355.759	691.6
356.158	668.4
356.557	684.8
356.956	681.6
357.355	675.4
357.754	700.8
358.153	692
358.552	706.4
358.951	682.8
359.35	692.8
359.75	679.2
360.149	678.4
360.527	682.8
360.926	681
361.326	687.4
361.726	696.6
362.125	676.6
362.525	695
362.925	687
363.325	687.4
363.724	686.8
364.124	682.8
364.524	679.6
364.924	691.8
365.324	700.4
365.725	670
366.125	686.8
366.525	681.6
366.904	680.8
367.304	668.2
367.705	714.8
368.105	696.8
368.506	686
368.906	685
369.307	678.4
369.708	687.8
370.108	670.4
370.509	699.2
370.91	676.6
371.311	684.4
371.712	681.6
372.113	692.4
372.514	672
372.894	687
373.295	678.4
373.696	693
374.097	691.2
374.499	718.6
374.9	686.8
375.301	666.4
375.703	687.8
376.105	673.6
376.506	695.6
376.908	699.4
377.309	685
377.711	677
378.113	686
378.493	689.8
378.895	679.2
379.297	689.2
379.699	669.6
380.102	688.8
380.504	685.4
380.906	676.6
381.308	706.8
381.71	678.4
382.113	702.2
382.515	695
382.918	683.8
383.299	675
383.701	692.2
384.104	695.4
384.507	657.2
384.909	682.8
385.312	672.2
385.715	678
386.118	673
386.521	671.4
386.924	700.8
387.327	678.4
387.709	662
388.112	663.6
388.515	668.8
388.918	688.8
389.322	688.2
389.725	682.6
390.129	705
390.532	681.4
390.936	677.4
391.339	667
391.743	688.4
392.125	685.6
392.529	700.6
392.933	697
393.337	682.4
393.74	682.8
394.144	681.2
394.548	679
394.953	689.6
395.357	697.6
395.761	681.8
396.144	686.6
396.548	684.8
396.952	675.4
397.357	680.6
397.761	679
398.166	676
398.57	678
398.975	670.4
399.379	677.8
399.763	726.4
400.168	682.4
400.572	676.8
400.977	677
401.382	708.4
401.787	690.6
402.192	696
402.597	694.6
403.002	671.2
403.386	698.2
403.791	702.8
404.197	681.2
404.602	684.6
405.007	688.2
405.413	677
405.818	677
406.224	674.6
406.608	673.8
407.014	669.6
407.42	705.4
407.825	675.4
408.231	687.8
408.637	684
409.043	695.6
409.449	687.2
409.834	676.2
410.24	689.8
410.646	698.8
411.052	693.8
411.458	693
411.865	692.4
412.271	692.4
412.677	694.6
413.062	690
413.469	670.2
413.875	713.4
414.282	699.4
414.689	693.2
415.095	690.6
415.502	683.2
415.888	681.6
416.294	662.6
416.701	722.4
417.108	672.2
417.515	686.4
417.923	679.4
418.33	703.2
418.715	690.2
419.123	677
419.53	677
419.937	697.6
420.345	706.2
420.752	675
421.16	694.4
421.546	682
421.953	688.4
422.361	678
422.769	688.4
423.177	676
423.585	704.6
423.992	703
424.379	692
424.787	699.2
425.195	703.6
425.603	678
426.011	704.4
426.419	702
426.806	689.2
427.214	678.8
427.623	696.6
428.031	703.4
428.44	687
428.848	701.2
429.235	704.6
429.644	686.8
430.053	683.8
430.461	702.4
430.87	714.8
431.279	702.6
431.666	670.6
432.075	679.6
432.484	694.4
432.893	680.8
433.302	706.6
433.711	748.2
434.099	689.6
434.508	684.6
434.918	670.4
435.327	694.6
435.737	685.8
436.125	680.4
436.534	689
436.944	689.6
437.353	691.4
437.763	705.8
438.173	673.6
438.561	693.2
438.971	669.8
439.381	683
439.791	688.6
440.201	664.4
440.589	688
440.999	694.8
441.409	692
441.819	675.4
442.23	689
442.619	691.4
443.029	682.4
443.439	686
443.85	694.4
444.26	699.8
444.649	698.2
445.06	682.4
445.471	681.2
445.881	686
446.292	703.4
446.682	705
447.092	665
447.503	737.8
447.914	673
448.325	695.6
448.715	687.6
449.126	672.6
449.537	679.4
449.948	683
450.338	683.4
450.75	683
451.161	686.6
451.572	694
451.984	682.2
452.374	662.4
452.786	684
453.197	694.6
453.609	691.2
453.999	669.8
454.411	669.2
454.823	687
455.235	685.4
455.647	674.6
456.037	686.4
456.449	669.8
456.862	693.8
457.274	679.8
457.665	671.6
458.077	688.4
458.489	715.6
458.902	674.8
459.293	681.4
459.705	683.4
460.118	672.4
460.53	679
460.921	674.6
461.334	686.4
461.747	683.8
462.16	693.4
462.551	700.2
462.964	688
463.377	659.4
463.79	671.6
464.182	694.6
464.595	674
465.008	691.6
465.421	682.6
465.813	674.2
466.226	678.4
466.64	669.8
467.053	733.4
467.445	696
467.859	696
468.272	682.2
468.686	694.4
469.078	673.4
469.492	668.4
469.906	680.8
470.298	686.2
470.712	668.4
471.126	746.6
471.54	662.6
471.933	668.2
472.347	684.6
472.761	673.8
473.175	671.8
473.568	674.2
473.982	669
474.397	686
474.79	685.8
475.204	683.6
475.619	672.2
476.033	677.4
476.426	676.6
476.841	668.8
477.256	710.2
477.649	675.4
478.064	672.2
478.479	680.4
478.872	663.8
479.287	661.4
479.702	670.4
480.118	676.2
480.511	675.4
480.927	670.8
481.342	668
481.736	676
482.151	672.8
482.566	689.4
482.96	678.4
483.376	689
483.792	665.4
484.186	688.4
484.602	671.4
485.017	681
485.412	676.6
485.827	682.2
486.243	677.6
486.638	701
487.054	690
487.47	691
487.865	674.8
488.281	667.8
488.697	676
489.092	679.2
489.508	662.4
489.925	696.8
490.32	662.8
490.736	684.4
491.153	678.6
491.548	678.8
491.964	694.4
492.381	663.2
492.776	680.4
493.193	676.4
493.61	681.8
494.006	671.2
494.422	682.2
494.84	661
495.235	678
495.652	678.8
496.069	678.4
496.465	668.4
496.883	673.8
497.3	705
497.696	672.8
498.113	683.2
498.509	662
498.927	666.6
499.344	673.2
499.741	658.6
500.158	683
500.576	690.4
500.973	677.2
501.39	663.4
501.787	657.4
502.205	681.4
502.623	663.4
503.02	654.4
503.438	663
503.856	666
504.253	676.4
504.671	667.8
505.068	660
505.486	668.2
505.905	693.6
506.302	670
506.72	683.2
507.118	655.2
507.536	672.8
507.955	677.2
508.352	682.2
508.771	689.8
509.169	688.2
509.587	663
510.006	676.8
510.404	655.6
510.823	666
511.221	668
511.64	665
512.038	690.2
512.457	675.4
512.877	676
513.275	669
513.694	675.6
514.092	667.2
514.512	684.8
514.91	674.4
515.33	679.8
515.749	683.2
516.148	674.2
516.568	682
516.966	669.8
517.386	663.2
517.785	677.8
518.205	668.4
518.603	666.2
519.024	662.4
519.444	671.6
519.843	677.8
520.263	676
520.662	675.4
521.082	665
521.481	668
521.902	673.6
522.301	664
522.722	668.2
523.121	664.8
523.542	662.2
523.963	673.8
524.362	676.6
524.783	667.2
525.183	672.8
525.604	677
526.003	671.8
526.425	659
526.824	678
527.246	679.2
527.646	689.8
528.067	669.2
528.467	668.4
528.888	677.8
529.289	671.2
529.71	669.4
530.11	667.6
530.532	658.6
530.932	667.6
531.354	664.2
531.755	714
532.176	677.2
532.577	666
532.999	664.8
533.4	668.4
533.822	679.2
534.223	663.8
534.645	663.8
535.046	667
535.468	668.4
535.869	679.8
536.292	667
536.693	710.6
537.115	672.8
537.516	659.8
537.939	666.2
538.34	694.8
538.742	687.6
539.165	664
539.566	677.4
539.989	659.2
540.391	667.6
540.814	674.4
541.216	676.8
541.639	665.8
542.041	681
542.464	669.8
542.866	658
543.268	658.6
543.691	678
544.093	677
544.517	697.4
544.919	656.8
545.343	691.8
545.745	659.4
546.147	678
546.571	659.2
546.974	662.4
547.398	672.8
547.8	694.6
548.224	672
548.627	654.6
549.03	673.8
549.454	668.4
549.857	646.8
550.281	673.6
550.684	667.2
551.087	677.2
551.512	666.2
551.915	669
552.34	671
552.743	669.4
553.146	669.2
553.571	668
553.975	693
554.399	661.4
554.803	721.6
555.207	661.6
555.632	663
556.036	677.8
556.461	665.8
556.865	665.8
557.268	665.8
557.694	667.6
558.098	683.6
558.502	671.8
558.927	663.8
559.332	673.8
559.736	660
560.162	677
560.566	667.8
560.992	673.4
561.396	675.8
561.801	668.4
562.227	673.4
562.631	669.8
563.036	668.8
563.462	674.8
563.867	674.8
564.272	642.4
564.698	672.4
565.103	652.6
565.508	684.8
565.935	670.4
566.34	656.4
566.745	686.2
567.172	664.8
567.577	695
567.982	678.2
568.409	668.6
568.815	654.8
569.22	668.6
569.626	682.6
570.053	661
570.459	664.6
570.865	678
571.292	677.2
571.698	673.6
572.104	660.6
572.531	655.8
572.937	680.6
573.343	677.4
573.75	662
574.177	668
574.583	670.4
574.99	663.8
575.396	679.4
575.824	670.4
576.231	677
576.637	657.4
577.065	703.2
577.472	662
577.879	659.2
578.286	684.4
578.714	660.2
579.121	676.4
579.528	667.8
579.935	675.6
580.364	671.4
580.771	657.2
581.178	658.6
581.585	677.6
582.014	676.4
582.421	661.6
582.829	659.6
583.236	686.2
583.644	659
584.073	668.8
584.481	673.4
584.889	668.2
585.296	671.4
585.726	670
586.134	661.2
586.542	660.6
586.95	693
587.358	650.8
587.787	672.6
588.196	658.2
588.604	665.4
589.012	668.8
589.421	656.8
589.851	664
590.259	670.2
590.668	668
591.076	708.2
591.485	660.2
591.894	664.2
592.324	671.4
592.733	681
593.142	652.4
593.551	666.2
593.96	672.8
594.369	654.6
594.8	659
595.209	666.8
595.618	648.2
596.028	652.4
596.437	653.4
596.847	671.8
597.256	667.4
597.687	672
598.097	671.4
598.507	653.8
598.917	652.8
599.327	665.4
599.736	668.4
600.146	678.2
600.556	664
600.988	677
601.398	658.2
601.808	680.4
602.219	652.6
602.629	669.8
603.039	662.6
603.45	702
603.86	667.6
604.271	685.8
604.703	664.6
605.114	669.2
605.525	661.6
605.935	672.6
606.346	684.2
606.757	662.6
607.168	667.6
607.579	653
607.99	684.2
608.402	658.6
608.813	664.6
609.224	659.4
609.636	660.2
610.047	660.8
610.48	671.6
610.892	670.8
611.303	672.6
611.715	665
612.127	657.4
612.539	661.4
612.95	673.8
613.362	652
613.774	656.4
614.186	658
614.599	666
615.011	680.4
615.423	660.4
615.835	662.2
616.248	657.6
616.66	674.6
617.073	653.6
617.485	657.8
617.898	671.8
618.311	666
618.723	651.8
619.136	699.6
619.549	675
619.962	690.8
620.375	664.4
620.788	675.4
621.201	650.6
621.614	668.6
622.028	662
622.441	668.2
622.854	677.2
623.268	653.4
623.681	675.6
624.095	657
624.509	679.4
624.922	670.2
625.336	650.6
625.728	657.6
626.142	670.4
626.556	684.6
626.97	671.4
627.384	658.4
627.799	670.2
628.213	678.2
628.627	669.6
629.041	661.8
629.456	662
629.87	663.6
630.285	670
630.699	669.6
631.093	668.4
631.507	671.4
631.922	669.4
632.337	686.8
632.752	653.6
633.167	665.4
633.582	652.4
633.997	656.8
634.412	653
634.806	654.6
635.221	642.8
635.637	672.4
636.052	652.4
636.468	663.4
636.883	686.2
637.299	666.6
637.715	648
638.109	661.2
638.525	650.2
638.941	678.4
639.357	663.4
639.773	681.8
640.189	653.4
640.584	659.6
641	669
641.416	649
641.832	660.6
642.249	658
642.665	664.8
643.06	668.4
643.477	669.2
643.894	642.2
644.31	669
644.727	662.8
645.123	660.2
645.54	656.2
645.957	660.2
646.374	676.6
646.77	660
647.187	696
647.604	670.2
648.021	651.8
648.439	665
648.835	664.2
649.252	663.6
649.67	664.2
650.088	656.4
650.484	679.4
650.902	676
651.32	674.2
651.738	659.4
652.134	675.2
652.552	689
652.971	666.8
653.389	669.6
653.786	686.2
654.204	691.4
654.622	650.8
655.019	663.4
655.438	667.6
655.857	659.6
656.275	668.2
656.673	651.4
657.091	753.8
657.51	651.6
657.908	671
658.327	676.4
658.746	650
659.144	665.4
659.563	679.6
659.982	668.8
660.38	658.2
660.8	663.2
661.219	672.4
661.617	672
662.037	665.2
662.457	679.6
662.855	653
663.275	695.8
663.695	664.4
664.094	654
664.514	664.2
664.934	664.6
665.333	672.6
665.753	655.2
666.152	652.2
666.572	650.6
666.993	683
667.392	657.4
667.812	666.2
668.212	659.2
668.632	675.6
669.053	655.8
669.453	668
669.874	657.4
670.273	660.2
670.694	658
671.116	671.4
671.515	681.6
671.937	660
672.337	659.4
672.758	655.8
673.158	673
673.58	662.8
673.98	669.8
674.402	684
674.824	656.4
675.224	645.6
675.646	656
676.047	653.6
676.469	664
676.869	668
677.292	667.6
677.693	653
678.115	649.6
678.516	666.6
678.939	668.8
679.34	652.2
679.762	672.2
680.164	658.2
680.586	653.4
680.988	662.8
681.411	693.2
681.812	661.2
682.236	651.6
682.637	660.4
683.061	652.6
683.462	666.4
683.864	664.4
684.288	664.6
684.69	651
685.114	682.4
685.516	667.6
685.94	651.6
686.342	674.6
686.766	654
687.168	658.4
687.571	681.8
687.995	665.2
688.398	650.8
688.822	654.6
689.225	677.6
689.628	686.8
690.052	653.6
690.456	667
690.88	659.4
691.284	652.8
691.687	672
692.112	654.6
692.515	657.4
692.919	659
693.344	668.2
693.747	652.4
694.173	647
694.577	677.8
694.98	659.2
695.406	659.2
695.81	660.6
696.214	660.2
696.64	668
697.044	666.6
697.448	673.4
697.874	664
698.279	655.4
698.684	649.2
699.11	657.6
699.514	662.2
699.919	655.8
700.324	660.8
700.75	666.2
701.156	671.6
701.561	682.8
701.987	669.6
702.393	679
702.798	670.2
703.203	658.4
703.63	659.4
704.036	664.6
704.442	666
704.847	654.2
705.274	663.2
705.68	662.2
706.086	669.6
706.492	659
706.92	658
707.326	671.8
707.732	658.2
708.139	652.6
708.545	644.2
708.973	661.2
709.38	669.4
709.786	653
710.193	684
710.6	655.4
711.028	650.4
711.435	660.8
711.842	660.8
712.249	655.2
712.656	666.4
713.064	661.4
713.492	652.8
713.9	661.2
714.307	669.4
714.715	670
715.123	659.4
715.53	662
715.938	678.8
716.367	669.6
716.775	656
717.184	654.2
717.592	659
718	666
718.408	695
718.816	707.2
719.225	663.6
719.633	665.6
720.042	655.2
720.472	669.6
720.881	688.6
721.29	666.8
721.699	663
722.108	665.6
722.517	664.6
722.926	657
723.335	673.8
723.744	670.4
724.154	662.8
724.563	651.2
724.973	664.6
725.382	653.2
725.792	657
726.202	653.4
726.612	677
727.022	654
727.432	656
779.813	660.4
780.223	705.2
780.634	658.8
781.044	653.4
781.454	652
781.865	677.6
782.276	640.8
782.686	663.8
783.097	644.4
783.508	651.2
783.919	666
784.33	678.8
784.741	670.2
785.152	642.2
785.563	643.4
785.974	646
786.386	663.4
786.776	658.2
787.188	652.8
787.599	648.4
788.011	675.4
788.423	661.4
788.835	645.8
789.247	648.6
789.659	652.8
790.071	649.8
790.483	702
790.874	651.8
791.286	667.2
791.699	654.8
792.111	655
792.524	657.2
792.937	655
793.349	645.2
793.741	653.2
794.154	657.8
794.567	678.4
794.98	653.2
795.393	643
795.785	669.8
796.198	653
796.612	661
797.026	657.4
797.439	639
797.831	658
798.245	636.8
798.659	653.8
799.073	657.4
799.487	650.2
799.88	666.2
800.294	656.6
800.708	666.4
801.123	664.8
801.516	677.6
801.93	647.4
802.345	642.8
802.76	653.8
803.153	674.8
803.568	677.2
803.983	670
804.377	668.8
804.792	644.4
805.207	649.8
805.601	661.4
806.016	689.8
806.432	657
806.826	693
807.242	676
807.658	662.8
808.052	658.4
808.468	660
808.884	652.4
809.279	659.6
809.695	684
810.111	683.4
810.506	669
810.922	682.8
811.339	651.4
811.734	662.6
812.151	659.2
812.546	656.6
812.963	650
813.38	660
813.776	662.4
814.193	689.2
814.589	650.4
815.006	659.8
815.402	638.2
815.82	645
816.237	658
816.633	657.2
817.051	643.2
817.448	657.8
817.866	645.4
818.262	685.2
818.68	653.4
819.077	654.2
819.495	656.8
819.892	700.4
820.311	644.4
820.708	647.2
821.127	650.2
821.524	673.6
821.943	662.2
822.34	674
822.759	662.6
823.157	669
823.576	661.8
823.974	661.4
824.393	749.2
824.791	653.8
825.189	637.6
825.609	650.4
826.007	654.2
826.427	642.4
826.826	647
827.246	655.4
827.644	642.6
828.043	667.4
828.463	657.2
828.862	662.2
829.261	665.2
829.682	651.2
830.081	662
830.502	661.6
830.901	668
831.301	645.6
831.722	644
832.121	664
832.521	657.4
832.943	657.2
833.342	662.2
833.742	649
834.164	656.8
834.564	644.6
834.965	657.6
835.386	657.8
835.787	657
836.188	656.2
836.588	666.2
837.01	664.8
837.411	650
837.812	660.6
838.213	661.8
838.636	646.2
839.037	739.6
839.438	663.2
839.84	669.6
840.263	664
840.664	671.4
841.066	656.6
841.468	660.2
841.891	649.4
842.293	676.6
842.695	667
843.098	664.2
843.5	649.8
843.902	661.2
844.326	664.6
844.729	668.4
845.131	677
845.534	655.4
845.937	668
846.34	679.2
846.764	644
847.167	660.2
847.571	651.6
847.974	656
848.377	654.2
848.781	710.4
849.184	663.8
849.588	658
849.992	655.6
850.396	654.6
850.821	670.6
851.225	661.8
851.63	658.6
852.034	666
852.438	658.2
852.843	798.6
853.247	646.4
853.652	652.4
854.057	676.8
854.462	657.4
854.867	651.8
855.272	682
855.677	659.6
856.082	658.4
856.487	645.2
856.893	662.4
857.298	659.4
857.704	654.4
858.11	656.2
858.516	658.6
858.922	662.6
859.328	667.4
859.734	661.2
860.14	663.6
860.525	652.8
860.931	654.8
861.338	657
861.745	663.8
862.151	663.8
862.558	656.2
862.965	648.8
863.372	650
863.779	650.2
864.186	669.4
864.572	652
864.98	666.6
865.387	690.2
865.795	643.6
866.203	659.2
866.61	653.4
867.018	662.2
867.405	651.8
867.813	649
868.221	648
868.63	653
869.038	659.4
869.425	699.2
869.834	661.2
870.243	645.4
870.652	650.2
871.039	647
871.448	651.6
871.857	655
872.266	656.4
872.654	657.2
873.064	657.4
873.473	668.2
873.883	646.2
874.271	654.8
874.681	661.8
875.091	639.8
875.48	663.4
875.89	678.2
876.3	655.8
876.689	642
877.1	650.6
877.51	660.8
877.9	683
878.31	651.2
878.721	689.2
879.111	663
879.522	656.6
879.933	641.6
880.323	646.6
880.734	644.2
881.125	661.2
881.536	648.4
881.948	638.8
882.338	656.6
882.75	662
883.141	638
883.553	653.8
883.944	678
884.356	667.8
884.769	645.8
885.16	650.6
885.573	649.2
885.964	645.8
886.377	656.6
886.768	642.8
887.181	653
887.573	647.4
887.987	657.8
888.378	664
888.792	653.6
889.184	704.2
889.598	644
889.99	654
890.383	654.6
890.797	638.2
891.19	662.4
891.604	645.4
891.997	639.4
892.411	638.6
892.805	649
893.198	644.6
893.613	622.8
894.006	653.4
894.421	644.2
894.815	642
895.209	645
895.624	698.2
896.018	673.6
896.412	648.2
896.828	654
897.222	658
897.617	647.8
898.033	682.4
898.427	645.8
898.822	654.2
899.239	638
899.634	642
900.029	676.8
900.424	642.6
900.841	641.8
901.236	663.2
901.632	661.6
902.027	716
902.445	662.2
902.841	654.2
903.237	653.8
903.633	667.2
904.05	666
904.447	665
904.843	660
905.24	653.8
905.636	643
906.033	656.8
906.451	660.6
906.848	640.8
907.246	662.2
907.643	655.2
908.04	658
908.438	684.6
908.835	658.8
909.254	656.2
909.652	649
910.05	654.6
910.448	643.6
910.846	655.8
911.244	650.2
911.643	661.2
912.041	657.8
912.44	671.2
912.839	645.2
913.237	647.6
913.636	646.4
914.035	663.6
914.434	651
914.834	671.8
915.233	668.6
915.633	656.8
916.032	649.4
916.432	650.4
916.832	666.4
917.232	649.6
917.632	642.2
918.032	665.2
918.432	649
918.833	655
919.233	643
919.634	638
920.035	663.2
920.436	651.2
920.837	656.4
921.238	646.2
921.639	654.4
922.019	658.2
922.42	656.8
922.822	650.6
923.224	649
923.625	657.2
924.027	649
924.429	667.6
924.81	652
925.212	652.4
925.615	645.4
926.017	653.4
926.42	657.8
926.801	661
927.204	662.6
927.607	661
928.01	670.8
928.413	664.2
928.795	645
929.199	652.4
929.602	643.2
930.006	653.8
930.388	647
930.792	656.8
931.196	651.6
931.579	693.8
931.983	646
932.388	706.8
932.771	659.8
933.176	644.8
933.58	663
933.964	670
934.369	646
934.774	664
935.158	649.6
935.563	657.8
935.947	663.8
936.353	665.2
936.759	651.6
937.143	657.4
937.549	663.4
937.934	666.6
938.34	674.8
938.746	652
939.131	658.8
939.538	651.6
939.923	655.4
940.33	652.6
940.716	654.8
941.123	661.8
941.508	655.6
941.916	672.8
942.302	658.2
942.709	645.4
943.096	639
943.503	656
943.89	662.4
944.298	654.6
944.685	689.6
945.072	651.2
945.48	661.4
945.867	651.8
946.276	659.2
946.663	682.2
947.051	667.6
947.46	661.8
947.848	662
948.257	645.6
948.645	659
949.033	645
949.443	644
949.831	700.4
950.22	645
950.63	667
951.018	689
951.407	646.2
951.796	649.6
952.207	669.8
952.596	668
952.985	641
953.375	708.2
953.786	655.2
954.176	649.6
954.566	658.2
954.956	642.2
955.367	656.4
955.758	674.8
956.148	642.6
956.539	666
956.929	646.8
957.341	639.6
957.732	646.2
958.123	673.8
958.515	643.2
958.906	658
959.297	643.2
959.689	650.8
960.102	639.4
960.494	655
960.886	651.6
961.278	655
961.67	679
962.062	692.6
962.455	645.8
962.847	635.8
963.24	647.2
963.633	650.8
964.026	647.8
964.419	655
964.812	661.4
965.206	642.4
965.599	655.8
965.993	652
966.386	651
966.78	664.8
967.174	667.8
967.569	640.4
967.963	641.2
968.357	641.6
968.752	646.4
969.146	650.4
969.541	639.6
969.936	638
970.331	644.8
970.705	652.8
971.1	645
971.496	665
971.892	654.4
972.287	642.6
972.683	649.8
973.079	653.8
973.454	662.8
973.85	646
974.247	661.2
974.643	675
975.04	651.8
975.415	659.2
975.812	649.2
976.209	656.4
976.607	645
976.982	663.8
977.38	676.8
977.778	648.4
978.175	638.8
978.552	652.2
978.95	657
979.348	657.4
979.725	712
980.123	646.8
980.522	642.4
980.899	645.4
981.298	641.8
981.697	656
982.075	647.8
982.474	637.4
982.852	649.8
983.251	657
983.651	644.8
984.029	649.4
984.429	649.6
984.808	638.8
985.208	641
985.609	639.8
985.987	636.8
986.388	646.6
986.768	657.8
987.168	641.4
987.548	652.2
987.949	655.6
988.329	647.6
988.731	636.8
989.111	649.6
989.491	645.8
989.893	642.6
990.273	663.2
990.676	633.6
991.057	638.8
991.459	651.8
991.84	644.4
992.221	641.2
992.624	667.4
993.006	652.8
993.388	645
993.791	654.6
994.173	656.2
994.576	684.4
994.959	638.6
995.341	649.8
995.724	645
996.128	646.6
996.511	655.8
996.894	647
997.298	647.2
997.681	654
998.065	654.4
998.448	645.8
998.854	659.4
999.237	640.2
999.621	667.2
1000.01	662.2
1000.39	655.6
1000.8	652.4
1001.18	652.2
1001.56	659.6
1001.95	650.8
1002.33	666.8
1002.72	647.4
1003.13	657.2
1003.51	646.2
1003.9	646.4
1004.28	669.2
1004.67	646.2
1005.06	647.4
1005.44	683.4
1005.83	645
1006.21	654.8
1006.6	643.4
1006.99	657.6
1007.37	667
1007.76	654.4
1060.12	640
1060.51	638.6
1060.89	658.2
1061.28	661.4
1061.67	658.4
1062.06	662.4
1062.45	654
1062.83	638
1063.22	661
1063.61	701.8
1064	658
1064.39	644.6
1064.78	656.4
1065.14	665.2
1065.53	655
1065.92	644
1066.31	652
1066.7	657.2
1067.09	665.8
1067.46	656.2
1067.85	641.4
1068.24	642.4
1068.63	660
1069.02	648
1069.39	651.8
1069.78	648.8
1070.17	643.6
1070.57	638.2
1070.93	658.2
1071.33	644.6
1071.72	655
1072.11	638
1072.48	647
1072.87	660.6
1073.26	644.6
1073.64	634.6
1074.03	636.6
1074.4	649
1074.79	641.2
1075.19	646.8
1075.56	654
1075.95	655
1076.34	642.6
1076.72	638.2
1077.11	650.2
1077.48	664
1077.88	643.8
1078.25	645.6
1078.64	659
1079.02	657
1079.41	659.8
1079.78	646.8
1080.18	641
1080.55	740.2
1080.95	645.4
1081.32	645.4
1081.72	658
1082.09	650.4
1082.49	640.6
1082.86	652.6
1083.24	631.8
1083.63	645.2
1084.01	648.8
1084.38	654.6
1084.78	652.8
1085.16	656.4
1085.55	665
1085.93	660.2
1086.31	635.2
1086.7	681
1087.08	659.2
1087.46	653.6
1087.83	638
1088.23	655.4
1088.61	653
1088.99	641.4
1089.36	644
1089.76	646.6
1090.14	652.2
1090.52	648.2
1090.9	645.2
1091.27	653.6
1091.67	679.6
1092.05	653.8
1092.43	640.8
1092.81	658.2
1093.19	656.4
1093.57	644
1093.95	651.2
1094.35	663.6
1094.73	653.4
1095.11	641
1095.49	644.2
1095.87	651.2
1096.25	657
1096.63	659.2
1097.01	645.8
1097.39	658.2
1097.77	646
1098.15	652.6
1098.53	642.4
1098.91	647.6
1099.29	647.4
1099.68	675
1100.06	662.6
1100.44	648
1100.82	654.4
1101.18	658.6
1101.56	635.8
1101.95	649.4
1102.33	645.6
1102.71	651.2
1103.1	635.6
1103.48	641.6
1103.86	640.6
1104.22	650
1104.61	649.4
1104.99	647.6
1105.38	637.6
1105.76	656.8
1106.12	639.4
1106.51	691.2
1106.89	659.6
1107.26	659.2
1107.64	658.6
1108.03	644.6
1108.41	638.6
1108.78	650.6
1109.16	645.6
1109.55	663.8
1109.91	640.8
1110.3	645.8
1110.69	668
1111.05	647.6
1111.44	651.8
1111.8	647
1112.19	653
1112.58	646
1112.94	643.8
1113.33	647.4
1113.7	639.2
1114.09	634.2
1114.45	637.4
1114.84	645.4
1115.21	656.4
1115.6	643.2
1115.96	655.4
1116.35	654.2
1116.72	645.8
1117.11	657.6
1117.48	648.8
1117.85	648
1118.24	671.4
1118.6	653.8
1118.99	640.6
1119.36	655.6
1119.73	647.2
1120.12	647.8
1120.49	638.4
1120.86	649.2
1121.25	640
1121.62	638.2
1121.99	642.6
1122.38	662.6
1122.76	653.2
1123.13	639
1123.5	648.8
1123.89	657
1124.26	642.4
1124.63	653.6
1125	646
1125.4	633.6
1125.77	636.8
1126.14	623.2
1126.51	643.2
1126.88	648.2
1127.26	638
1127.63	628.6
1128.02	642.4
1128.4	636
1128.77	646
1129.14	639.6
1129.52	645.8
1129.89	651
1130.26	639.8
1130.64	636.2
1131.01	647.6
