#lambda/nm	C1
208.295	536.2
208.67	495
209.045	452
209.419	455
209.794	684.8
210.169	664.2
210.544	801.6
210.919	695.2
211.295	670.2
211.67	698.8
212.045	695.4
212.421	681.2
212.796	731.2
213.172	682.2
213.547	687.8
213.923	675.8
214.299	685
214.675	692
215.051	692
215.427	705
215.803	708.6
216.179	693.6
216.555	684.4
216.932	698.8
217.308	677.8
217.684	690.6
218.061	696.4
218.438	691.6
218.814	686.8
219.191	696.8
219.568	678.4
219.945	680
220.322	686.6
220.699	694.2
221.076	697.2
221.453	702.4
221.83	686
222.208	682
222.585	678
222.962	685.6
223.34	697.8
223.717	689.8
224.095	691.8
224.473	695.4
224.851	678
225.229	681.4
225.607	693.8
225.985	672.4
226.363	697.2
226.741	689.8
227.119	682.8
227.497	702
227.876	669.2
228.254	686.2
228.633	684.2
229.011	688.4
229.39	691.8
229.769	682.2
230.148	690.4
230.527	696.4
230.905	681.2
231.284	689.8
231.664	678
232.043	707.2
232.422	694.8
232.801	672.2
233.181	694
233.56	681.6
233.94	687
234.319	674
234.699	692.2
235.079	736.6
235.458	729.8
235.838	713.4
236.218	683
236.598	679.2
236.978	678
237.358	680.2
237.738	681.6
238.119	695.2
238.499	678.4
238.88	695
239.26	710.8
239.641	675.8
240.021	680.2
240.402	685.8
240.783	687.6
241.163	679
241.544	692.6
241.925	683.4
242.306	711
242.687	681
243.069	695.4
243.45	700.8
243.831	682
244.212	684.2
244.594	725.8
244.975	696.8
245.357	697.4
245.739	685.6
246.12	686.2
246.502	699.2
246.884	688
247.266	683.4
247.648	695
248.03	711.8
248.412	697
248.794	704
249.176	676.2
249.559	703
249.941	680.4
250.323	677.2
250.706	682.2
251.089	692.4
251.471	694.4
251.854	693.8
252.237	687.4
252.62	694.8
253.002	691.2
253.385	691.4
253.769	711
254.152	686.2
254.535	703.4
254.918	677.8
255.301	685.4
255.685	690
256.068	677.6
256.452	726.6
256.835	687.4
257.219	698.8
257.603	708.6
257.986	679.8
258.37	695.8
258.754	685.2
259.138	705.4
259.522	696.4
259.906	684.6
260.29	694.8
260.675	685.8
261.059	691.4
261.443	670.2
261.828	692.8
262.212	687.8
262.597	682
262.981	685.4
263.366	700
263.751	691.4
264.136	679.8
264.521	677.6
264.906	682.2
265.291	704
265.676	674.8
266.061	691
266.446	707.6
266.831	687
267.217	709.4
267.602	692
267.987	694.4
268.373	684.8
268.759	705
269.144	692.8
269.53	685.4
269.916	692.8
270.302	679.4
270.688	695
271.074	691
271.46	703.8
271.846	723.4
272.232	682.8
272.618	678.4
273.004	681
273.391	701.8
273.777	710.8
274.164	687.8
274.55	708.2
274.937	686.2
275.324	686.6
275.71	700.6
276.097	703.4
276.484	680.8
276.871	685.6
277.258	694.2
277.645	669.2
278.032	679.4
278.419	688.8
278.807	693
279.194	679
279.581	679
279.969	690
280.356	689.4
280.744	683.4
281.131	720.8
281.519	686.8
281.907	683.6
282.295	688
282.682	710.6
283.07	692.8
283.458	692
283.846	696.4
284.235	703.2
284.623	703
285.011	680.6
285.399	688.6
285.788	685.8
286.176	672.2
286.565	691.2
286.953	677.2
287.342	685.4
287.731	675.4
288.119	677.6
288.508	683.4
288.897	690.8
289.286	671.6
289.675	686.6
290.064	706.8
290.453	685.4
290.821	693.2
291.21	704.2
291.599	675.8
291.989	697.6
292.378	700
292.768	705.6
293.157	704
293.547	693
293.936	684.8
294.326	682.2
294.716	699.2
295.106	676.4
295.496	702.4
295.886	695.6
296.276	679.6
296.666	687.2
297.056	682.2
297.446	669.2
297.836	704.6
298.227	684
298.617	694.4
299.008	703
299.398	689
299.789	683.2
300.179	694.8
300.57	703.6
300.961	694
301.352	687.6
301.742	700.2
302.133	698.4
302.524	697.8
302.915	694
303.307	683.8
303.698	703.4
304.089	696.2
304.48	699
304.872	695
305.263	694.2
305.655	691
306.046	703
306.438	702.2
306.829	693.6
307.221	697
307.613	708.8
308.005	705.2
308.397	708.4
308.789	715.4
309.181	727.8
309.573	718.4
309.965	710.8
310.357	689.6
310.749	713.8
311.142	693.2
311.534	685
311.926	710.2
312.319	689.2
312.711	672.8
313.104	708
313.497	687.6
313.889	727.6
314.282	703.4
314.675	712.4
315.068	694.2
315.461	698.6
315.854	728.4
316.247	695
316.64	689.2
317.033	696.4
317.405	707.6
317.798	693.6
318.192	691.4
318.585	682.2
318.979	701.2
319.372	685.2
319.766	686.2
320.16	703.8
320.553	716.2
320.947	714.8
321.341	689.4
321.735	692.4
322.129	679.4
322.523	723
322.917	691.4
323.311	703.8
323.705	701.4
324.099	700.8
324.494	712.2
324.888	702
325.282	694.4
325.677	706
326.071	702.4
326.466	709.4
326.861	694.8
327.255	711
327.65	707.4
328.045	713
328.44	705.4
328.835	701
329.23	682.4
329.625	719.8
330.02	686
330.415	714
330.81	694.2
331.206	694.8
331.601	685.6
331.996	693.6
332.37	717.6
332.766	676
333.161	712.6
333.557	685.2
333.953	688.8
334.348	1124.4
334.744	689.8
335.14	677.6
335.536	686.8
335.932	692.8
336.328	691.4
336.724	695.6
337.12	684.2
337.516	689.8
337.913	694.6
338.309	714.2
338.705	685.2
339.102	699.4
339.498	687.6
339.895	700.2
340.291	689.6
340.688	695.2
341.085	677.4
341.481	691.6
341.878	685.2
342.275	711.2
342.672	686.8
343.069	683.8
343.466	676.8
343.842	693.6
344.239	684.4
344.636	698.4
345.033	679.8
345.431	686.6
345.828	684
346.225	684.4
346.623	733.4
347.02	695
347.418	697.6
347.816	710.2
348.213	681.4
348.611	698.8
349.009	684.4
349.407	707.4
349.805	678
350.203	673.8
350.601	701
350.999	677
351.397	752
351.795	688
352.193	696.8
352.57	696.6
352.969	707.2
353.367	676.2
353.766	683
354.164	682.4
354.563	708
354.961	687.8
355.36	692.6
355.759	688.4
356.158	678.2
356.557	679.6
356.956	676.2
357.355	676.2
357.754	699
358.153	694
358.552	712.6
358.951	690.6
359.35	699
359.75	683
360.149	680.4
360.527	669.6
360.926	676.8
361.326	687.8
361.726	684
362.125	673.4
362.525	701.4
362.925	690.2
363.325	695.2
363.724	687.6
364.124	685.6
364.524	675
364.924	691.4
365.324	701.8
365.725	665
366.125	693.6
366.525	687.6
366.904	686
367.304	666
367.705	709.6
368.105	691.6
368.506	680.8
368.906	690
369.307	685.8
369.708	691.8
370.108	674.2
370.509	698
370.91	691
371.311	693.2
371.712	677.4
372.113	675
372.514	665.2
372.894	686
373.295	687
373.696	700.6
374.097	701.2
374.499	729.6
374.9	693.6
375.301	676.6
375.703	695.4
376.105	674.6
376.506	677.8
376.908	691.4
377.309	688.6
377.711	690
378.113	682.4
378.493	688.8
378.895	676.2
379.297	698
379.699	670
380.102	683.8
380.504	681.8
380.906	675.6
381.308	702.6
381.71	676.6
382.113	687.2
382.515	683.4
382.918	685.2
383.299	686.6
383.701	686.2
384.104	679.6
384.507	662.8
384.909	677.4
385.312	668.6
385.715	680.4
386.118	678.6
386.521	665.4
386.924	695.8
387.327	670.4
387.709	668.6
388.112	665.8
388.515	677.4
388.918	675.6
389.322	690
389.725	673
390.129	706.2
390.532	695.8
390.936	675.8
391.339	676
391.743	678
392.125	667.6
392.529	694.4
392.933	686.8
393.337	668.8
393.74	681.4
394.144	683.2
394.548	667.6
394.953	670.8
395.357	691.4
395.761	675.4
396.144	678.4
396.548	677.2
396.952	681.4
397.357	690.2
397.761	675
398.166	676.4
398.57	675.4
398.975	663
399.379	682.4
399.763	740.8
400.168	679.2
400.572	682.2
400.977	674.6
401.382	702.2
401.787	688
402.192	693.4
402.597	699.4
403.002	669.4
403.386	690.6
403.791	697.6
404.197	680.8
404.602	683.4
405.007	690.2
405.413	681
405.818	678.6
406.224	683.4
406.608	681
407.014	669.2
407.42	708
407.825	682.8
408.231	693.4
408.637	698.4
409.043	698
409.449	684
409.834	673
410.24	679
410.646	696.8
411.052	703
411.458	685.4
411.865	702
412.271	687.6
412.677	690.4
413.062	690.2
413.469	674
413.875	714.2
414.282	697
414.689	684.4
415.095	691.2
415.502	677.2
415.888	691.4
416.294	671.6
416.701	724.4
417.108	674
417.515	685.4
417.923	674.4
418.33	701
418.715	689.6
419.123	684.8
419.53	680.4
419.937	683
420.345	705
420.752	679.6
421.16	703.2
421.546	688.4
421.953	682.6
422.361	675.6
422.769	681.6
423.177	674.6
423.585	713.8
423.992	711.8
424.379	696.4
424.787	698
425.195	717.8
425.603	692.8
426.011	695.6
426.419	710
426.806	699.8
427.214	688
427.623	707.4
428.031	709.2
428.44	700.4
428.848	701.2
429.235	705.4
429.644	690.4
430.053	695
430.461	705
430.87	732.4
431.279	706.2
431.666	683
432.075	701
432.484	704.6
432.893	701.2
433.302	723.6
433.711	760.2
434.099	714.8
434.508	708.6
434.918	693.6
435.327	721.2
435.737	715.2
436.125	719.4
436.534	729
436.944	719
437.353	727.8
437.763	732.4
438.173	708
438.561	731.2
438.971	709.4
439.381	724.2
439.791	724
440.201	703
440.589	730.4
440.999	738.8
441.409	724.6
441.819	721.2
442.23	748.8
442.619	755.4
443.029	742.8
443.439	745.8
443.85	753.6
444.26	763.4
444.649	761
445.06	758.6
445.471	744
445.881	755.6
446.292	781.6
446.682	779
447.092	741.6
447.503	808
447.914	759
448.325	764.4
448.715	767.2
449.126	755
449.537	759.4
449.948	759
450.338	760
450.75	772
451.161	766.2
451.572	774.8
451.984	770
452.374	750
452.786	758.6
453.197	770.8
453.609	773.4
453.999	749.8
454.411	747.8
454.823	777.8
455.235	764.8
455.647	765
456.037	773.4
456.449	759.8
456.862	770
457.274	767.2
457.665	761.6
458.077	772
458.489	802.6
458.902	765.6
459.293	764
459.705	767.6
460.118	751.4
460.53	767.8
460.921	772.6
461.334	784
461.747	769.4
462.16	786.4
462.551	785.8
462.964	775.2
463.377	751.6
463.79	774.6
464.182	790
464.595	762.4
465.008	774.8
465.421	771.2
465.813	757
466.226	780.4
466.64	772.4
467.053	831
467.445	788.6
467.859	794.8
468.272	780.2
468.686	785.6
469.078	779
469.492	756.2
469.906	773.8
470.298	768.8
470.712	763.6
471.126	839.6
471.54	755.4
471.933	767.8
472.347	762.4
472.761	774.2
473.175	767
473.568	761.6
473.982	753
474.397	765
474.79	777.2
475.204	776.4
475.619	768.6
476.033	777.6
476.426	767.8
476.841	757.2
477.256	796.2
477.649	761.8
478.064	752.6
478.479	755.4
478.872	754.2
479.287	747.8
479.702	753.2
480.118	770.6
480.511	757.6
480.927	763
481.342	757.2
481.736	767.4
482.151	753.8
482.566	775.6
482.96	774
483.376	771.4
483.792	749.2
484.186	766.6
484.602	750.8
485.017	754
485.412	760
485.827	764.4
486.243	768.6
486.638	794.2
487.054	759.8
487.47	767.4
487.865	750.6
488.281	747.8
488.697	749.6
489.092	754.2
489.508	750.8
489.925	759.4
490.32	741
490.736	758.2
491.153	756.2
491.548	756
491.964	762.2
492.381	737
492.776	756.8
493.193	742.8
493.61	760.8
494.006	742.6
494.422	753.6
494.84	740.8
495.235	752.8
495.652	745.2
496.069	740.8
496.465	740
496.883	746
497.3	768
497.696	733.8
498.113	744.6
498.509	725.6
498.927	726.6
499.344	731.4
499.741	727.2
500.158	743.2
500.576	744
500.973	737.2
501.39	730.2
501.787	725.2
502.205	730.8
502.623	730.2
503.02	711.6
503.438	730.4
503.856	720.8
504.253	731.4
504.671	738.2
505.068	722.8
505.486	722.8
505.905	746
506.302	732.8
506.72	742
507.118	720.4
507.536	728
507.955	727
508.352	733
508.771	736.8
509.169	728
509.587	726.8
510.006	728.4
510.404	712.2
510.823	713
511.221	727.6
511.64	719.4
512.038	736.8
512.457	724.4
512.877	720.6
513.275	712.4
513.694	709.2
514.092	720.4
514.512	725.4
514.91	714.8
515.33	712.2
515.749	714.6
516.148	712.4
516.568	728.6
516.966	709.4
517.386	719.6
517.785	709.6
518.205	703
518.603	719.2
519.024	710.2
519.444	721.4
519.843	721
520.263	723.8
520.662	719.4
521.082	707
521.481	712
521.902	705
522.301	707.2
522.722	711
523.121	703.4
523.542	703.2
523.963	706.8
524.362	708.8
524.783	707.8
525.183	711.4
525.604	717.6
526.003	700
526.425	689
526.824	705.4
527.246	707.8
527.646	718
528.067	713
528.467	700
528.888	711
529.289	702.8
529.71	704.6
530.11	704.6
530.532	709.4
530.932	702.2
531.354	691.2
531.755	727.4
532.176	703.8
532.577	700.8
532.999	707.6
533.4	689.8
533.822	717.6
534.223	701.2
534.645	696.4
535.046	688.2
535.468	694.6
535.869	713
536.292	695.4
536.693	745
537.115	708.8
537.516	691.4
537.939	689.8
538.34	717
538.742	702.4
539.165	700.8
539.566	697.6
539.989	692
540.391	685
540.814	693
541.216	692.6
541.639	695
542.041	698
542.464	682.6
542.866	677.8
543.268	678
543.691	685.4
544.093	692
544.517	706
544.919	683.2
545.343	722.2
545.745	688
546.147	689.6
546.571	687.2
546.974	677.2
547.398	688
547.8	700.2
548.224	693.6
548.627	689.4
549.03	698.8
549.454	673.2
549.857	678.4
550.281	686.8
550.684	686.2
551.087	703.8
551.512	695.2
551.915	698.2
552.34	683.2
552.743	686.2
553.146	702
553.571	676.6
553.975	713
554.399	681.6
554.803	752.4
555.207	687.4
555.632	682.2
556.036	695.8
556.461	677.4
556.865	687
557.268	681.6
557.694	687.4
558.098	696.6
558.502	692.6
558.927	680
559.332	686.6
559.736	681.2
560.162	691
560.566	688.2
560.992	687
561.396	694.2
561.801	678.4
562.227	689.4
562.631	673.4
563.036	675.2
563.462	701.2
563.867	692.6
564.272	665
564.698	692
565.103	675.4
565.508	705.4
565.935	689.2
566.34	679.8
566.745	689
567.172	674
567.577	701.6
567.982	704.6
568.409	691.6
568.815	669.8
569.22	683.4
569.626	686.2
570.053	662.2
570.459	681.2
570.865	689.2
571.292	688.8
571.698	681.6
572.104	649.8
572.531	681.4
572.937	695.2
573.343	673.6
573.75	673.2
574.177	688.4
574.583	688.4
574.99	675.8
575.396	684.2
575.824	672.6
576.231	684.8
576.637	669.2
577.065	704.8
577.472	677.6
577.879	671.6
578.286	702
578.714	669
579.121	677
579.528	684
579.935	685.6
580.364	672.8
580.771	663.8
581.178	663.4
581.585	679.4
582.014	684.4
582.421	668.8
582.829	679.4
583.236	686.6
583.644	664
584.073	665.6
584.481	680.2
584.889	668.8
585.296	686.2
585.726	681.8
586.134	666
586.542	664.6
586.95	702.8
587.358	662
587.787	679.6
588.196	665.8
588.604	674.6
589.012	675.4
589.421	665
589.851	665
590.259	677.6
590.668	675.4
591.076	715.6
591.485	661.4
591.894	668.8
592.324	687.6
592.733	684.2
593.142	647.2
593.551	668
593.96	674.8
594.369	669.4
594.8	660
595.209	667.2
595.618	649
596.028	660
596.437	660.8
596.847	666.8
597.256	679.4
597.687	678.8
598.097	669
598.507	657.8
598.917	669.8
599.327	677
599.736	672
600.146	677.8
600.556	662.8
600.988	684.6
601.398	666.6
601.808	672.8
602.219	651.2
602.629	666.6
603.039	673.8
603.45	700.8
603.86	666.6
604.271	685.6
604.703	671.2
605.114	667.8
605.525	669.2
605.935	674
606.346	686.8
606.757	668.4
607.168	678.8
607.579	664.6
607.99	681.4
608.402	668.2
608.813	671.6
609.224	662.6
609.636	665.6
610.047	666.6
610.48	667.8
610.892	676.6
611.303	679
611.715	661.6
612.127	663.6
612.539	671.8
612.95	669.4
613.362	659
613.774	652.4
614.186	666.2
614.599	664.8
615.011	682.8
615.423	664.2
615.835	670.4
616.248	656.2
616.66	675.4
617.073	652.6
617.485	668.4
617.898	682
618.311	672.8
618.723	665.8
619.136	699
619.549	681.8
619.962	694.6
620.375	667.6
620.788	677.4
621.201	670
621.614	683
622.028	669.6
622.441	665.8
622.854	682.8
623.268	656.4
623.681	677.6
624.095	663.8
624.509	677
624.922	671.2
625.336	652.4
625.728	666.2
626.142	671.4
626.556	685
626.97	670.6
627.384	657
627.799	667
628.213	681.8
628.627	656.4
629.041	666.8
629.456	659.6
629.87	669
630.285	668.8
630.699	675.8
631.093	667.4
631.507	672.8
631.922	669.6
632.337	686.2
632.752	663.2
633.167	667
633.582	670.2
633.997	656.8
634.412	661.6
634.806	675
635.221	659.8
635.637	679.4
636.052	655.6
636.468	669.4
636.883	694.6
637.299	666
637.715	653.8
638.109	660.6
638.525	654.8
638.941	677
639.357	673
639.773	687
640.189	660
640.584	667
641	670.4
641.416	660.2
641.832	664.8
642.249	667.8
642.665	672
643.06	678
643.477	684.8
643.894	642.6
644.31	658.4
644.727	656.8
645.123	662.8
645.54	654.4
645.957	655.6
646.374	676.6
646.77	653.8
647.187	686.8
647.604	665
648.021	642.4
648.439	659.8
648.835	668.2
649.252	665
649.67	653
650.088	664.4
650.484	670.8
650.902	672.6
651.32	673.8
651.738	667
652.134	671
652.552	685.6
652.971	668.8
653.389	666
653.786	677.4
654.204	686
654.622	674.8
655.019	663.6
655.438	672.8
655.857	672.6
656.275	662
656.673	660.2
657.091	739.6
657.51	665.6
657.908	670.6
658.327	684.8
658.746	654.6
659.144	663
659.563	681.8
659.982	673.4
660.38	648.4
660.8	676
661.219	672.8
661.617	668.8
662.037	662.8
662.457	674.6
662.855	642
663.275	700.2
663.695	664.2
664.094	665
664.514	666
664.934	654.8
665.333	680.2
665.753	653.6
666.152	662.4
666.572	659.8
666.993	684.2
667.392	663.2
667.812	664.8
668.212	654.8
668.632	673.4
669.053	667
669.453	662.8
669.874	665
670.273	677.8
670.694	664.4
671.116	673.8
671.515	674
671.937	654.4
672.337	660.2
672.758	655
673.158	671
673.58	653.6
673.98	670.4
674.402	678.6
674.824	665.8
675.224	651.6
675.646	649.6
676.047	658
676.469	652.6
676.869	671.6
677.292	666.4
677.693	656.6
678.115	668
678.516	670.6
678.939	669.8
679.34	668.6
679.762	681
680.164	671.6
680.586	654.6
680.988	661
681.411	694.2
681.812	654
682.236	666
682.637	658
683.061	651.2
683.462	665.6
683.864	660.6
684.288	672
684.69	658
685.114	672.4
685.516	677
685.94	660.6
686.342	666.2
686.766	661
687.168	656.4
687.571	678.4
687.995	667.2
688.398	660.8
688.822	662
689.225	685.6
689.628	680.4
690.052	665.4
690.456	679.6
690.88	660
691.284	652.8
691.687	676.2
692.112	653
692.515	651.4
692.919	666.4
693.344	666.6
693.747	659.6
694.173	664.4
694.577	679
694.98	657.6
695.406	658.8
695.81	672.6
696.214	658.6
696.64	663.8
697.044	662.2
697.448	670.8
697.874	655.8
698.279	660.2
698.684	655
699.11	653.4
699.514	657
699.919	662.8
700.324	645.2
700.75	667.6
701.156	666
701.561	682.6
701.987	658
702.393	669.4
702.798	678.2
703.203	660.4
703.63	649.4
704.036	656.8
704.442	659
704.847	651.6
705.274	659
705.68	669
706.086	671.8
706.492	650.8
706.92	662
707.326	670
707.732	655.4
708.139	653.4
708.545	651.4
708.973	666.6
709.38	656.8
709.786	651.4
710.193	678.6
710.6	666.2
711.028	658.2
711.435	648
711.842	659.8
712.249	654.8
712.656	659.8
713.064	669.8
713.492	653.2
713.9	657.4
714.307	667.8
714.715	656.6
715.123	658
715.53	673.6
715.938	675.8
716.367	658.4
716.775	666.6
717.184	648.6
717.592	661
718	672.6
718.408	701.6
718.816	709.2
719.225	662.8
719.633	655.2
720.042	648.2
720.472	667.2
720.881	678.2
721.29	668.2
721.699	652.2
722.108	671
722.517	660.8
722.926	670.6
723.335	672.8
723.744	660.2
724.154	663.6
724.563	661.2
724.973	664.6
725.382	662.8
725.792	664.2
726.202	652.6
726.612	685.4
727.022	660.4
727.432	656.2
779.813	655
780.223	710
780.634	659.6
781.044	648.6
781.454	656.8
781.865	669.4
782.276	651.4
782.686	670
783.097	662.2
783.508	647
783.919	663.4
784.33	681.4
784.741	678.8
785.152	657.2
785.563	642.2
785.974	646.8
786.386	671.8
786.776	663.2
787.188	663.8
787.599	646.6
788.011	668.2
788.423	659.8
788.835	667.8
789.247	647.8
789.659	649.6
790.071	650.4
790.483	707
790.874	658
791.286	674.8
791.699	660.4
792.111	656.6
792.524	661.4
792.937	659.8
793.349	654.2
793.741	650.6
794.154	660.2
794.567	678.6
794.98	658.6
795.393	646.6
795.785	680.4
796.198	643
796.612	660
797.026	653
797.439	643.6
797.831	660.4
798.245	647
798.659	656.2
799.073	651.4
799.487	637.8
799.88	649.2
800.294	651.2
800.708	654.2
801.123	651.8
801.516	670.8
801.93	640.4
802.345	639.4
802.76	651.8
803.153	664
803.568	667.6
803.983	665.8
804.377	655
804.792	647
805.207	640.2
805.601	646.8
806.016	695.6
806.432	649.6
806.826	684.8
807.242	672.6
807.658	657
808.052	655.4
808.468	661.6
808.884	653
809.279	653.4
809.695	660.6
810.111	686.4
810.506	659.8
810.922	683.6
811.339	655.2
811.734	666.8
812.151	656.4
812.546	655.8
812.963	655.4
813.38	656.4
813.776	651.6
814.193	671.4
814.589	654
815.006	648.8
815.402	654.4
815.82	660.8
816.237	662.2
816.633	666.4
817.051	652.8
817.448	655.4
817.866	644.2
818.262	690
818.68	658
819.077	650.8
819.495	641.8
819.892	708.8
820.311	645
820.708	660.8
821.127	653.8
821.524	669.4
821.943	667.4
822.34	667
822.759	664.8
823.157	662.4
823.576	672.2
823.974	673.8
824.393	788
824.791	653.6
825.189	646.4
825.609	653.6
826.007	661
826.427	646.6
826.826	654
827.246	662.6
827.644	649.4
828.043	666.8
828.463	654.2
828.862	666.2
829.261	665
829.682	650.4
830.081	668.8
830.502	649
830.901	663.6
831.301	649.8
831.722	642
832.121	655.6
832.521	653.8
832.943	654.2
833.342	663.8
833.742	645.6
834.164	659.8
834.564	652.4
834.965	663.4
835.386	657
835.787	653.4
836.188	656.4
836.588	663.2
837.01	650.6
837.411	646.8
837.812	663.2
838.213	659.6
838.636	647.8
839.037	736.4
839.438	668.4
839.84	667
840.263	665.6
840.664	657.6
841.066	659.2
841.468	651
841.891	648.2
842.293	673
842.695	665.6
843.098	663.6
843.5	644.4
843.902	675.4
844.326	662.4
844.729	652.4
845.131	661.6
845.534	660.8
845.937	670.4
846.34	683.8
846.764	655.8
847.167	657.4
847.571	641.4
847.974	651.6
848.377	650.4
848.781	719.2
849.184	677.2
849.588	644.2
849.992	650
850.396	647
850.821	676.8
851.225	675.6
851.63	644
852.034	659.6
852.438	654
852.843	699.6
853.247	648
853.652	639.8
854.057	678.4
854.462	662.6
854.867	663.8
855.272	696.2
855.677	662.8
856.082	658.2
856.487	647.2
856.893	661.2
857.298	652.6
857.704	648
858.11	660.2
858.516	668.6
858.922	654
859.328	671.6
859.734	657.6
860.14	652.8
860.525	657.2
860.931	651
861.338	659.8
861.745	654.8
862.151	666.8
862.558	655
862.965	649.6
863.372	654.6
863.779	653.6
864.186	676
864.572	655
864.98	676.4
865.387	693
865.795	643.6
866.203	663.4
866.61	647.6
867.018	669.4
867.405	657.6
867.813	648.2
868.221	654.6
868.63	651.6
869.038	664.2
869.425	701.6
869.834	658.8
870.243	650.4
870.652	652.4
871.039	655.8
871.448	654.6
871.857	664
872.266	660.2
872.654	662.2
873.064	651
873.473	672.6
873.883	649.6
874.271	651.8
874.681	664.2
875.091	640.4
875.48	663.2
875.89	670
876.3	659
876.689	646
877.1	656.8
877.51	664
877.9	686.4
878.31	648.6
878.721	690.2
879.111	658.2
879.522	662.6
879.933	643
880.323	639
880.734	656.4
881.125	653.6
881.536	644.6
881.948	649.6
882.338	660.2
882.75	659.6
883.141	655
883.553	659.2
883.944	677.4
884.356	658
884.769	656.2
885.16	653.6
885.573	651.6
885.964	642.4
886.377	658.8
886.768	641.8
887.181	649.2
887.573	645.8
887.987	669
888.378	670.6
888.792	663.2
889.184	711.8
889.598	655.6
889.99	657
890.383	647.6
890.797	641
891.19	665.8
891.604	649.4
891.997	636.6
892.411	645.2
892.805	646.8
893.198	650.6
893.613	628.8
894.006	655.6
894.421	642.4
894.815	652.4
895.209	649.4
895.624	701
896.018	672.6
896.412	646.4
896.828	650.2
897.222	657.6
897.617	646.6
898.033	676.2
898.427	661.4
898.822	648.4
899.239	654.4
899.634	645
900.029	666.8
900.424	651.4
900.841	640.2
901.236	661
901.632	651.2
902.027	718.8
902.445	660.4
902.841	650.2
903.237	652.2
903.633	661.6
904.05	655
904.447	650.8
904.843	662.8
905.24	653.8
905.636	641.4
906.033	650
906.451	661.8
906.848	645.2
907.246	643.2
907.643	656
908.04	660.4
908.438	676.8
908.835	658.8
909.254	652
909.652	657.4
910.05	657.6
910.448	647
910.846	654.6
911.244	646.8
911.643	657
912.041	657.6
912.44	670.6
912.839	645.4
913.237	654
913.636	640.8
914.035	664.2
914.434	645
914.834	669.6
915.233	669
915.633	652
916.032	650.8
916.432	655.2
916.832	675.2
917.232	647.6
917.632	638.8
918.032	659.8
918.432	661.6
918.833	653
919.233	641.4
919.634	646.2
920.035	656.8
920.436	648.8
920.837	660.2
921.238	654.8
921.639	653.2
922.019	656.2
922.42	670.2
922.822	661
923.224	660.4
923.625	657.6
924.027	645.4
924.429	684.2
924.81	663
925.212	653.8
925.615	651.8
926.017	655.4
926.42	669.8
926.801	656.2
927.204	661.2
927.607	656.2
928.01	667
928.413	653.6
928.795	642.4
929.199	653.4
929.602	654.2
930.006	647.2
930.388	648.2
930.792	662.8
931.196	647.2
931.579	688
931.983	649.2
932.388	710.4
932.771	643.2
933.176	644.8
933.58	653.6
933.964	663.4
934.369	651.6
934.774	665.2
935.158	646.2
935.563	660.8
935.947	655.4
936.353	669.6
936.759	653.2
937.143	667
937.549	662.2
937.934	672.4
938.34	677.6
938.746	642
939.131	655.8
939.538	652.2
939.923	663.6
940.33	639.4
940.716	660.8
941.123	651.4
941.508	661.2
941.916	673.8
942.302	658.4
942.709	647.8
943.096	640.8
943.503	656
943.89	653.2
944.298	655
944.685	680.8
945.072	653.2
945.48	665.6
945.867	651
946.276	647.6
946.663	676
947.051	682.8
947.46	658.8
947.848	661.6
948.257	649.6
948.645	659.8
949.033	648.2
949.443	647.8
949.831	695
950.22	648.6
950.63	652
951.018	689.4
951.407	649.6
951.796	647
952.207	657.8
952.596	653
952.985	645.6
953.375	692
953.786	653.2
954.176	637.6
954.566	662
954.956	634.8
955.367	647.6
955.758	680.2
956.148	651.6
956.539	669.4
956.929	648.6
957.341	636.8
957.732	648.6
958.123	664.2
958.515	638.6
958.906	654.6
959.297	651.4
959.689	653
960.102	647
960.494	656.6
960.886	648.8
961.278	648.4
961.67	674.8
962.062	687.6
962.455	644.6
962.847	641.6
963.24	642.8
963.633	650.6
964.026	637.2
964.419	652.6
964.812	665
965.206	650.2
965.599	655.4
965.993	646.6
966.386	642.8
966.78	665.8
967.174	662.2
967.569	650.4
967.963	641.8
968.357	639.4
968.752	649.4
969.146	652.2
969.541	643.4
969.936	647.6
970.331	657.6
970.705	650.4
971.1	650.8
971.496	664.4
971.892	641.8
972.287	646.2
972.683	648.6
973.079	646.4
973.454	663
973.85	648.4
974.247	659.2
974.643	686.2
975.04	657
975.415	649.6
975.812	644.6
976.209	651.2
976.607	637.8
976.982	666
977.38	674.6
977.778	647.4
978.175	651.8
978.552	655.8
978.95	649.2
979.348	652.2
979.725	705.2
980.123	643.8
980.522	646.4
980.899	644.6
981.298	645
981.697	649.2
982.075	647.4
982.474	642
982.852	645.8
983.251	652.4
983.651	639.8
984.029	647.8
984.429	653
984.808	637.4
985.208	645.6
985.609	638.6
985.987	647.2
986.388	646.2
986.768	661.8
987.168	646
987.548	662
987.949	656.2
988.329	654.2
988.731	637.8
989.111	647
989.491	650.8
989.893	648.8
990.273	666.8
990.676	639.2
991.057	647.4
991.459	637.6
991.84	655.2
992.221	636.8
992.624	667.2
993.006	653.2
993.388	658
993.791	655.6
994.173	663.2
994.576	692.4
994.959	643
995.341	646.8
995.724	652.6
996.128	655.4
996.511	643
996.894	643.4
997.298	640.2
997.681	659.8
998.065	652.8
998.448	656
998.854	656
999.237	642.6
999.621	656.2
1000.01	663.8
1000.39	644.8
1000.8	638.6
1001.18	650.2
1001.56	642.4
1001.95	657.8
1002.33	655.2
1002.72	638.2
1003.13	644
1003.51	648
1003.9	641.4
1004.28	671
1004.67	628.6
1005.06	646.8
1005.44	683.6
1005.83	636.6
1006.21	650
1006.6	651
1006.99	663.6
1007.37	655.6
1007.76	649.4
1060.12	637.6
1060.51	645.2
1060.89	666.8
1061.28	659.8
1061.67	667.2
1062.06	658.6
1062.45	653.2
1062.83	641.4
1063.22	661.2
1063.61	691.4
1064	659.4
1064.39	652.6
1064.78	643
1065.14	673.8
1065.53	656.4
1065.92	649.4
1066.31	641
1066.7	657
1067.09	666.2
1067.46	662.2
1067.85	647.6
1068.24	652.2
1068.63	654
1069.02	649.6
1069.39	645.6
1069.78	649.2
1070.17	652.6
1070.57	644.6
1070.93	655.6
1071.33	644
1071.72	654
1072.11	643.4
1072.48	645
1072.87	637.4
1073.26	654.6
1073.64	652.6
1074.03	636.4
1074.4	653.6
1074.79	649.8
1075.19	643.6
1075.56	645.4
1075.95	645.2
1076.34	651.8
1076.72	652
1077.11	653.2
1077.48	662
1077.88	657
1078.25	642.2
1078.64	656.2
1079.02	657
1079.41	666
1079.78	647.4
1080.18	641.6
1080.55	727
1080.95	649
1081.32	642.4
1081.72	659.4
1082.09	653.6
1082.49	645
1082.86	652.6
1083.24	639
1083.63	635.6
1084.01	652.2
1084.38	656.4
1084.78	644.4
1085.16	647.4
1085.55	665
1085.93	660
1086.31	646
1086.7	685.6
1087.08	656.8
1087.46	650
1087.83	633.2
1088.23	651.8
1088.61	650.2
1088.99	650.4
1089.36	647.4
1089.76	648.6
1090.14	648.4
1090.52	646.6
1090.9	641.2
1091.27	650.8
1091.67	676.8
1092.05	652.6
1092.43	649.2
1092.81	658.8
1093.19	656.8
1093.57	648.2
1093.95	646.8
1094.35	665.8
1094.73	657
1095.11	634.4
1095.49	641.2
1095.87	651.2
1096.25	667
1096.63	659
1097.01	651.2
1097.39	660.8
1097.77	651.2
1098.15	650.8
1098.53	631.6
1098.91	649.6
1099.29	652.8
1099.68	672.4
1100.06	662.2
1100.44	649
1100.82	657.6
1101.18	658
1101.56	642.4
1101.95	647.4
1102.33	646.4
1102.71	641
1103.1	640.6
1103.48	636.8
1103.86	639.2
1104.22	653
1104.61	646.6
1104.99	646.2
1105.38	643.2
1105.76	644.2
1106.12	643.4
1106.51	680.2
1106.89	660
1107.26	644.4
1107.64	660.4
1108.03	639.8
1108.41	649.4
1108.78	652.2
1109.16	643.2
1109.55	660.6
1109.91	644.8
1110.3	636
1110.69	661.4
1111.05	648.6
1111.44	648
1111.8	647
1112.19	651.4
1112.58	652.8
1112.94	642.2
1113.33	640.6
1113.7	638.8
1114.09	644.2
1114.45	638.4
1114.84	649.4
1115.21	653.6
1115.6	643.8
1115.96	657.2
1116.35	646.8
1116.72	640.6
1117.11	650
1117.48	646.8
1117.85	648.2
1118.24	658.8
1118.6	644.4
1118.99	634.6
1119.36	650.6
1119.73	646.8
1120.12	650.8
1120.49	648.2
1120.86	651.6
1121.25	648
1121.62	638.4
1121.99	645.4
1122.38	655.8
1122.76	650.2
1123.13	636.2
1123.5	656.4
1123.89	659.2
1124.26	628.4
1124.63	642.8
1125	653.2
1125.4	634.2
1125.77	637.6
1126.14	630.8
1126.51	647.6
1126.88	651.2
1127.26	644.4
1127.63	633.2
1128.02	637.8
1128.4	640.6
1128.77	634.2
1129.14	643.6
1129.52	649.8
1129.89	651.4
1130.26	638.6
1130.64	626.8
1131.01	633
