#lambda/nm	C1
208.295	542.2
208.67	490.8
209.045	452.6
209.419	451.2
209.794	694.2
210.169	666
210.544	803.4
210.919	694.4
211.295	682.6
211.67	682.8
212.045	682.6
212.421	676.8
212.796	728.8
213.172	681.6
213.547	678.6
213.923	686.2
214.299	684.4
214.675	694
215.051	697.6
215.427	698.6
215.803	710.6
216.179	696.2
216.555	680.4
216.932	695.8
217.308	688.8
217.684	686.8
218.061	693
218.438	687.8
218.814	677.2
219.191	690.4
219.568	682.4
219.945	681.6
220.322	684.2
220.699	690.8
221.076	703.4
221.453	688
221.83	680.8
222.208	681.8
222.585	683.4
222.962	688.8
223.34	682.6
223.717	694.8
224.095	676.8
224.473	693
224.851	680.6
225.229	680.4
225.607	707.4
225.985	677
226.363	693
226.741	694.6
227.119	684
227.497	699.8
227.876	670.2
228.254	702
228.633	698
229.011	691.8
229.39	696.2
229.769	691.2
230.148	700.2
230.527	714
230.905	686.4
231.284	696.2
231.664	675.6
232.043	706.8
232.422	700.4
232.801	686
233.181	694.2
233.56	675.4
233.94	684.2
234.319	676.2
234.699	689.8
235.079	729
235.458	728
235.838	707.4
236.218	676.2
236.598	677
236.978	688
237.358	679
237.738	683.2
238.119	691.6
238.499	684.6
238.88	683
239.26	717.4
239.641	672
240.021	688
240.402	694.6
240.783	684.8
241.163	690.2
241.544	685.2
241.925	694.4
242.306	712
242.687	686.4
243.069	690.6
243.45	701.8
243.831	685.6
244.212	683
244.594	728.6
244.975	699.2
245.357	698.6
245.739	689.6
246.12	684.8
246.502	706.2
246.884	687.8
247.266	683
247.648	691.2
248.03	717.4
248.412	693.6
248.794	696.4
249.176	685.6
249.559	700.6
249.941	685.2
250.323	684.2
250.706	683.6
251.089	684.8
251.471	696.6
251.854	691.2
252.237	686.8
252.62	691.2
253.002	686
253.385	684.8
253.769	708.6
254.152	687.4
254.535	699.4
254.918	673
255.301	687.8
255.685	679.4
256.068	674.6
256.452	714.2
256.835	706.6
257.219	690.4
257.603	699
257.986	671.6
258.37	698.6
258.754	665.8
259.138	698
259.522	698.8
259.906	684.2
260.29	692.8
260.675	690
261.059	686.6
261.443	683
261.828	700.6
262.212	698
262.597	675.2
262.981	694.8
263.366	692.4
263.751	704.6
264.136	678.8
264.521	680.2
264.906	681.2
265.291	690.2
265.676	682.2
266.061	700.2
266.446	700.4
266.831	680.2
267.217	709.4
267.602	698.8
267.987	697.6
268.373	691.8
268.759	699.6
269.144	699.8
269.53	689
269.916	686.2
270.302	680.6
270.688	698.6
271.074	692.6
271.46	706.4
271.846	729.8
272.232	695.8
272.618	686.8
273.004	687.8
273.391	710.2
273.777	703
274.164	698.4
274.55	704.6
274.937	694.2
275.324	692.8
275.71	691
276.097	703.8
276.484	677
276.871	691.6
277.258	686.8
277.645	672.6
278.032	694.6
278.419	681.4
278.807	699.8
279.194	676.4
279.581	684.4
279.969	697
280.356	698.8
280.744	686.4
281.131	722
281.519	706.4
281.907	677.2
282.295	685
282.682	711.2
283.07	692
283.458	697.8
283.846	693.4
284.235	694.4
284.623	697
285.011	681.4
285.399	682.2
285.788	685.8
286.176	682.2
286.565	697.8
286.953	684.4
287.342	684.4
287.731	675.6
288.119	682.6
288.508	680.2
288.897	689.4
289.286	671.6
289.675	685.4
290.064	701
290.453	681
290.821	696.2
291.21	705
291.599	680.2
291.989	688.6
292.378	694.6
292.768	720.4
293.157	698
293.547	696.2
293.936	691.2
294.326	676.6
294.716	690
295.106	685.8
295.496	691.8
295.886	709.8
296.276	689.6
296.666	672
297.056	684
297.446	683
297.836	705.2
298.227	682.2
298.617	685
299.008	697
299.398	682.6
299.789	676.6
300.179	694
300.57	699.8
300.961	682.4
301.352	676.2
301.742	695.2
302.133	691.6
302.524	694.2
302.915	694.8
303.307	676.2
303.698	699.4
304.089	696
304.48	699
304.872	693.2
305.263	691.8
305.655	685.8
306.046	699
306.438	698
306.829	685.8
307.221	715
307.613	698.2
308.005	698.6
308.397	710.2
308.789	708.2
309.181	717
309.573	715.8
309.965	708.4
310.357	702.8
310.749	706.6
311.142	676.4
311.534	677.4
311.926	698
312.319	694.2
312.711	684.8
313.104	702.8
313.497	683.6
313.889	738.6
314.282	706.6
314.675	712
315.068	691.4
315.461	700.8
315.854	726.4
316.247	695.4
316.64	687.4
317.033	686
317.405	694
317.798	692
318.192	694.2
318.585	683.4
318.979	696.4
319.372	682.8
319.766	695
320.16	701.6
320.553	706.8
320.947	710.8
321.341	685.4
321.735	691.8
322.129	670.8
322.523	718.8
322.917	675.8
323.311	705.6
323.705	697.2
324.099	690.4
324.494	714.6
324.888	719
325.282	687.2
325.677	711.6
326.071	688.4
326.466	710
326.861	696.2
327.255	706.6
327.65	703.8
328.045	708.2
328.44	691.2
328.835	690
329.23	685.8
329.625	716
330.02	691.8
330.415	712.6
330.81	693.2
331.206	693.4
331.601	682.6
331.996	698.6
332.37	716.8
332.766	673
333.161	721.6
333.557	686.2
333.953	691.4
334.348	1094.2
334.744	694.8
335.14	685.8
335.536	697.2
335.932	706.4
336.328	701.2
336.724	699.2
337.12	691.4
337.516	697.8
337.913	689.4
338.309	704.6
338.705	690.6
339.102	704.8
339.498	689.4
339.895	709.6
340.291	692.8
340.688	709.6
341.085	693
341.481	697.8
341.878	694.2
342.275	716.2
342.672	685
343.069	686.8
343.466	684
343.842	710.6
344.239	685.4
344.636	697.4
345.033	684.8
345.431	681
345.828	693.8
346.225	684.6
346.623	725.6
347.02	697.8
347.418	703
347.816	713.8
348.213	682.4
348.611	699.8
349.009	683.4
349.407	709.4
349.805	677
350.203	680.8
350.601	710.6
350.999	689.4
351.397	769
351.795	696.2
352.193	705.4
352.57	691
352.969	704.8
353.367	679.6
353.766	683.4
354.164	689.8
354.563	701.4
354.961	691.2
355.36	692.2
355.759	695.4
356.158	682
356.557	675
356.956	676.8
357.355	674.6
357.754	694.2
358.153	702.6
358.552	713.8
358.951	686
359.35	697.4
359.75	680.2
360.149	680.6
360.527	667.6
360.926	679.6
361.326	686.8
361.726	700.2
362.125	676.4
362.525	702.2
362.925	688
363.325	684.8
363.724	695.2
364.124	682.8
364.524	678.6
364.924	686.4
365.324	700.4
365.725	669.4
366.125	696.2
366.525	691.8
366.904	670.4
367.304	671.8
367.705	708.2
368.105	698.2
368.506	678.4
368.906	685.4
369.307	685.4
369.708	689
370.108	682.2
370.509	699.2
370.91	678.4
371.311	683.6
371.712	683
372.113	684.4
372.514	673
372.894	684.8
373.295	676
373.696	683.6
374.097	693.6
374.499	715.4
374.9	690.8
375.301	677.2
375.703	689.6
376.105	678.4
376.506	680.8
376.908	695.4
377.309	681.4
377.711	691.2
378.113	676.2
378.493	687.2
378.895	680.2
379.297	696.2
379.699	668
380.102	695.2
380.504	689
380.906	676.4
381.308	713.8
381.71	682.2
382.113	690.2
382.515	682.6
382.918	682.6
383.299	676
383.701	695.2
384.104	679.4
384.507	654.6
384.909	679.4
385.312	659.4
385.715	670.2
386.118	684.4
386.521	667
386.924	697.8
387.327	671
387.709	662.8
388.112	660.8
388.515	674.8
388.918	677.6
389.322	686.8
389.725	677.2
390.129	707
390.532	683.4
390.936	671.6
391.339	666.8
391.743	687.6
392.125	674.6
392.529	685.8
392.933	696.8
393.337	676.8
393.74	677.8
394.144	685.2
394.548	674.2
394.953	680.2
395.357	690.4
395.761	682.4
396.144	682.2
396.548	680.8
396.952	680
397.357	689.6
397.761	674.8
398.166	674.8
398.57	672.4
398.975	669.4
399.379	682.2
399.763	739.6
400.168	676.4
400.572	680.6
400.977	672.4
401.382	707.4
401.787	684
402.192	702.8
402.597	703.4
403.002	679.6
403.386	692.4
403.791	705.6
404.197	681
404.602	679.4
405.007	689.8
405.413	684.8
405.818	694.4
406.224	672
406.608	673.8
407.014	677.2
407.42	696.8
407.825	669.2
408.231	703.6
408.637	687.4
409.043	691.4
409.449	680
409.834	680
410.24	684.8
410.646	701.4
411.052	695.8
411.458	681.6
411.865	700
412.271	696.6
412.677	685
413.062	694
413.469	668.6
413.875	707.8
414.282	705.2
414.689	689.2
415.095	699
415.502	674.2
415.888	689.4
416.294	664.8
416.701	729.2
417.108	675
417.515	691.6
417.923	674.4
418.33	709.2
418.715	700.8
419.123	684
419.53	679.2
419.937	690.4
420.345	691.8
420.752	680.2
421.16	697.4
421.546	675.2
421.953	689.8
422.361	672.2
422.769	688.6
423.177	678.4
423.585	717.6
423.992	715.8
424.379	698.2
424.787	686.2
425.195	709.8
425.603	685
426.011	696.8
426.419	705.8
426.806	680.4
427.214	693.6
427.623	697.6
428.031	699.8
428.44	689.4
428.848	702.6
429.235	711.6
429.644	701.4
430.053	690.6
430.461	711.2
430.87	720.4
431.279	711.4
431.666	678
432.075	684
432.484	696.2
432.893	688
433.302	707.4
433.711	743
434.099	693.4
434.508	680.8
434.918	680.6
435.327	694.2
435.737	693
436.125	677.4
436.534	691.4
436.944	691.4
437.353	700.6
437.763	714.2
438.173	687.6
438.561	696.8
438.971	666
439.381	696
439.791	688.6
440.201	665.6
440.589	686.4
440.999	692.2
441.409	686.2
441.819	674
442.23	694.6
442.619	689
443.029	680.8
443.439	687.6
443.85	697.6
444.26	707.8
444.649	695.8
445.06	695.2
445.471	671
445.881	685.4
446.292	709.8
446.682	710.4
447.092	673.8
447.503	750.4
447.914	681
448.325	692.4
448.715	687.2
449.126	684
449.537	688.4
449.948	685.2
450.338	692.8
450.75	685.4
451.161	683.8
451.572	698
451.984	679
452.374	666.8
452.786	682.4
453.197	687.6
453.609	694.8
453.999	671.2
454.411	674
454.823	704.4
455.235	687.8
455.647	683.8
456.037	694.8
456.449	670.2
456.862	679
457.274	688
457.665	667
458.077	689
458.489	718.6
458.902	689.4
459.293	690.2
459.705	687
460.118	670.4
460.53	684.6
460.921	687.8
461.334	692
461.747	689.2
462.16	698.4
462.551	701.2
462.964	688.6
463.377	674.8
463.79	681.4
464.182	697.8
464.595	675.2
465.008	683.4
465.421	690.4
465.813	685
466.226	688.4
466.64	678.6
467.053	735.8
467.445	699.4
467.859	700.8
468.272	682.4
468.686	695.2
469.078	688
469.492	672.4
469.906	688.8
470.298	696.2
470.712	673
471.126	753.2
471.54	668.4
471.933	676.2
472.347	689.6
472.761	676.6
473.175	671.2
473.568	677.6
473.982	665.2
474.397	674
474.79	674.8
475.204	684.4
475.619	678.8
476.033	685.2
476.426	674.6
476.841	672.2
477.256	713
477.649	677
478.064	672.6
478.479	671.6
478.872	680.2
479.287	670.2
479.702	676.8
480.118	688.8
480.511	674.6
480.927	677
481.342	677
481.736	684.6
482.151	679.4
482.566	680.8
482.96	674
483.376	688.4
483.792	671.8
484.186	683.6
484.602	681.6
485.017	679
485.412	684.2
485.827	684.4
486.243	677.4
486.638	714.4
487.054	686.8
487.47	694.4
487.865	672.2
488.281	671.4
488.697	673.4
489.092	670.8
489.508	666.2
489.925	692.2
490.32	666.2
490.736	682
491.153	676.6
491.548	682.2
491.964	688.4
492.381	657.6
492.776	684
493.193	667.2
493.61	686.4
494.006	680.4
494.422	679.2
494.84	659.4
495.235	689
495.652	677.2
496.069	681
496.465	664.6
496.883	668.6
497.3	712.2
497.696	676.2
498.113	681.2
498.509	668.2
498.927	664
499.344	663
499.741	666.2
500.158	687.4
500.576	691.6
500.973	681
501.39	669.6
501.787	664.8
502.205	680.8
502.623	666
503.02	663
503.438	669.4
503.856	676.8
504.253	685
504.671	673.6
505.068	673
505.486	674
505.905	692.2
506.302	672.6
506.72	693.6
507.118	665.4
507.536	684
507.955	677.2
508.352	681.8
508.771	681.8
509.169	683.8
509.587	664.4
510.006	669.6
510.404	660.8
510.823	667.6
511.221	667.4
511.64	670
512.038	694
512.457	668.2
512.877	679
513.275	674.2
513.694	674.2
514.092	675.2
514.512	678.4
514.91	677.8
515.33	672
515.749	679.4
516.148	675.2
516.568	685.4
516.966	673.4
517.386	677.2
517.785	675.8
518.205	672
518.603	660.8
519.024	660.2
519.444	680
519.843	684.4
520.263	679.4
520.662	676
521.082	667.2
521.481	676
521.902	676.8
522.301	671.2
522.722	680.6
523.121	666.4
523.542	671.8
523.963	666
524.362	676.8
524.783	681.2
525.183	664.8
525.604	676
526.003	655.2
526.425	667.6
526.824	670.8
527.246	690.2
527.646	681.6
528.067	673.4
528.467	670
528.888	679.2
529.289	666.4
529.71	672.2
530.11	670.4
530.532	669.4
530.932	658.8
531.354	664.6
531.755	712.8
532.176	678.4
532.577	674.2
532.999	673
533.4	668.8
533.822	689.8
534.223	674.4
534.645	667.4
535.046	678.8
535.468	671.6
535.869	695
536.292	658.2
536.693	721
537.115	671.2
537.516	658.8
537.939	660.2
538.34	691
538.742	682
539.165	672.8
539.566	668.6
539.989	663.4
540.391	662
540.814	681
541.216	676.6
541.639	671.8
542.041	676.4
542.464	662.2
542.866	668.8
543.268	664.4
543.691	672.8
544.093	678.6
544.517	698.4
544.919	660.4
545.343	702.4
545.745	653.8
546.147	672.6
546.571	671.6
546.974	662
547.398	665
547.8	678.8
548.224	669.8
548.627	666
549.03	673.2
549.454	660.4
549.857	656
550.281	669
550.684	667
551.087	683.8
551.512	674.8
551.915	673.4
552.34	669.8
552.743	663.8
553.146	681.2
553.571	668.2
553.975	698.4
554.399	662.2
554.803	723.6
555.207	666.4
555.632	661
556.036	678.2
556.461	661.8
556.865	670
557.268	669.8
557.694	666.6
558.098	677
558.502	670.4
558.927	663.8
559.332	663.2
559.736	665.2
560.162	674
560.566	675.4
560.992	680
561.396	659
561.801	668.4
562.227	670.6
562.631	665.2
563.036	667.4
563.462	673.8
563.867	670.8
564.272	656
564.698	668.6
565.103	657
565.508	683.8
565.935	672.8
566.34	663.2
566.745	672.6
567.172	674.2
567.577	697.2
567.982	684
568.409	673.2
568.815	655.6
569.22	670.6
569.626	688.6
570.053	650.4
570.459	674
570.865	686
571.292	674.8
571.698	672.8
572.104	657.6
572.531	667.8
572.937	681.2
573.343	659.6
573.75	665.2
574.177	669.8
574.583	681.2
574.99	662
575.396	673.6
575.824	666.4
576.231	664.4
576.637	670.2
577.065	691.8
577.472	661.4
577.879	666
578.286	683.8
578.714	666.2
579.121	665.2
579.528	667.8
579.935	676
580.364	667
580.771	650
581.178	661.6
581.585	666.8
582.014	673.8
582.421	664.2
582.829	663.4
583.236	685.2
583.644	655.6
584.073	663
584.481	664.4
584.889	651
585.296	681.2
585.726	664.4
586.134	663.4
586.542	664.8
586.95	693.8
587.358	654.8
587.787	660.8
588.196	657.4
588.604	661.2
589.012	667.8
589.421	658.2
589.851	668
590.259	674.6
590.668	667.2
591.076	706.6
591.485	658
591.894	667.2
592.324	676.6
592.733	678.8
593.142	654.4
593.551	661
593.96	695
594.369	642.6
594.8	665.2
595.209	660.8
595.618	649
596.028	656
596.437	653.8
596.847	657
597.256	665.2
597.687	664.8
598.097	662.6
598.507	645.4
598.917	662.4
599.327	672
599.736	673.8
600.146	674.8
600.556	660.2
600.988	672.8
601.398	656
601.808	676.4
602.219	657.8
602.629	668.2
603.039	671
603.45	693.8
603.86	664
604.271	689.8
604.703	666.2
605.114	661.8
605.525	669.4
605.935	677.8
606.346	687.2
606.757	673.6
607.168	656.8
607.579	665
607.99	677.4
608.402	678
608.813	676.4
609.224	660
609.636	647.6
610.047	649
610.48	669.4
610.892	669
611.303	684.4
611.715	670.4
612.127	658.4
612.539	657.8
612.95	659.2
613.362	650
613.774	656
614.186	663
614.599	664.2
615.011	670
615.423	668
615.835	659
616.248	654.2
616.66	673.6
617.073	656.6
617.485	671.4
617.898	676.8
618.311	668.6
618.723	673.8
619.136	694.6
619.549	671.4
619.962	690.4
620.375	664
620.788	664.8
621.201	665.6
621.614	671.4
622.028	663.4
622.441	667.8
622.854	676.6
623.268	655.6
623.681	667.6
624.095	673.2
624.509	666.4
624.922	671
625.336	650.4
625.728	659.8
626.142	671.6
626.556	684.4
626.97	676.8
627.384	657.4
627.799	662.8
628.213	670.4
628.627	666
629.041	659
629.456	662.4
629.87	663.2
630.285	667
630.699	667
631.093	665.8
631.507	667
631.922	675.4
632.337	670.8
632.752	648.8
633.167	673.4
633.582	656
633.997	659.6
634.412	656.8
634.806	667.2
635.221	658.4
635.637	679.8
636.052	655.2
636.468	665.2
636.883	688.2
637.299	668.4
637.715	648
638.109	671.2
638.525	663.4
638.941	681.8
639.357	670.8
639.773	676.8
640.189	661.8
640.584	658.2
641	668.4
641.416	653
641.832	659.2
642.249	657
642.665	652.8
643.06	663.8
643.477	668.8
643.894	643.8
644.31	658.6
644.727	656.4
645.123	662.4
645.54	654.8
645.957	660.8
646.374	682
646.77	668.8
647.187	695.2
647.604	656.8
648.021	646.6
648.439	651.8
648.835	666.6
649.252	658.2
649.67	656
650.088	666.4
650.484	664.6
650.902	679
651.32	678.6
651.738	664.6
652.134	669.6
652.552	691.2
652.971	675
653.389	666.4
653.786	673.8
654.204	687.8
654.622	655.2
655.019	667
655.438	670.2
655.857	666.6
656.275	673.2
656.673	647.6
657.091	744.6
657.51	666.2
657.908	680.4
658.327	683.2
658.746	647.8
659.144	668.4
659.563	677.4
659.982	670.4
660.38	654.6
660.8	656.8
661.219	674.4
661.617	676.2
662.037	664.2
662.457	672.6
662.855	658
663.275	702.8
663.695	663.6
664.094	664.4
664.514	665.8
664.934	655.4
665.333	675.6
665.753	654.4
666.152	654.6
666.572	659.6
666.993	674
667.392	656.8
667.812	656.4
668.212	658.4
668.632	681.8
669.053	657.8
669.453	669.2
669.874	673.2
670.273	666.6
670.694	653.4
671.116	669.8
671.515	674.4
671.937	656.6
672.337	651.6
672.758	657.8
673.158	671.8
673.58	653.6
673.98	653.2
674.402	685.8
674.824	667
675.224	654.4
675.646	647.2
676.047	659
676.469	662.4
676.869	668.8
677.292	667.6
677.693	664.4
678.115	654.2
678.516	671.4
678.939	667
679.34	671.6
679.762	676.6
680.164	667.8
680.586	663.4
680.988	671
681.411	688
681.812	664
682.236	653.8
682.637	658.6
683.061	652.4
683.462	668.2
683.864	664.8
684.288	670.2
684.69	653.4
685.114	670.8
685.516	677.2
685.94	649.4
686.342	672
686.766	665.4
687.168	655.6
687.571	678.4
687.995	667.8
688.398	649.4
688.822	663.2
689.225	687.6
689.628	685.2
690.052	660.4
690.456	668.4
690.88	665
691.284	653
691.687	664.6
692.112	660.6
692.515	654.8
692.919	660.8
693.344	658.4
693.747	660
694.173	656.4
694.577	669.8
694.98	673.8
695.406	655.4
695.81	662
696.214	662.8
696.64	661.2
697.044	655.4
697.448	667.4
697.874	657.2
698.279	662.8
698.684	644.2
699.11	652.4
699.514	661.2
699.919	659.6
700.324	646.2
700.75	662
701.156	663.4
701.561	668.2
701.987	656.8
702.393	672.2
702.798	673.8
703.203	659.2
703.63	658.2
704.036	651.4
704.442	665.4
704.847	651.2
705.274	658.6
705.68	659
706.086	674.4
706.492	658.4
706.92	662.4
707.326	673.8
707.732	661.4
708.139	651.8
708.545	653.6
708.973	654.6
709.38	668.4
709.786	641.6
710.193	673.2
710.6	664.2
711.028	653.2
711.435	671.6
711.842	659
712.249	661.8
712.656	655.6
713.064	663.6
713.492	652.2
713.9	660.4
714.307	669.8
714.715	655.4
715.123	663.4
715.53	663.6
715.938	677.8
716.367	661
716.775	659.8
717.184	646.4
717.592	660
718	675.2
718.408	703.4
718.816	717.4
719.225	664.2
719.633	661.6
720.042	657.6
720.472	665
720.881	684
721.29	662.8
721.699	645.6
722.108	673.4
722.517	667.8
722.926	661
723.335	670.2
723.744	663
724.154	663.8
724.563	667
724.973	656.6
725.382	659.8
725.792	659.4
726.202	644.6
726.612	693.2
727.022	657.8
727.432	655.6
779.813	652.4
780.223	706.4
780.634	657
781.044	649.2
781.454	658
781.865	674.8
782.276	647.6
782.686	671.4
783.097	663
783.508	666
783.919	654.8
784.33	666.2
784.741	669.8
785.152	657
785.563	645.8
785.974	648.6
786.386	675.2
786.776	651.4
787.188	655.6
787.599	647.6
788.011	674.8
788.423	651.4
788.835	651.8
789.247	645.4
789.659	656.2
790.071	658.2
790.483	710.6
790.874	654.2
791.286	664
791.699	649
792.111	654
792.524	660
792.937	666
793.349	646.6
793.741	649.6
794.154	661.6
794.567	678.8
794.98	655
795.393	638.8
795.785	675.6
796.198	652.2
796.612	670.2
797.026	653.4
797.439	640.4
797.831	652.4
798.245	643.6
798.659	645.8
799.073	659.8
799.487	650.4
799.88	663.6
800.294	648.8
800.708	669.8
801.123	658
801.516	682.4
801.93	640.6
802.345	650.4
802.76	653
803.153	673
803.568	670
803.983	671
804.377	664.2
804.792	652.4
805.207	645.4
805.601	655.6
806.016	701
806.432	656
806.826	699.8
807.242	675.2
807.658	663.4
808.052	656.4
808.468	661
808.884	660.4
809.279	677.6
809.695	677
810.111	689.8
810.506	663
810.922	678.4
811.339	663.4
811.734	672.4
812.151	657.8
812.546	651
812.963	652.4
813.38	667.2
813.776	656
814.193	684.8
814.589	657.6
815.006	660.4
815.402	653.8
815.82	651
816.237	653.8
816.633	651.8
817.051	654.6
817.448	658.8
817.866	649
818.262	679.8
818.68	655.4
819.077	648
819.495	657.2
819.892	700.4
820.311	654.4
820.708	643
821.127	654.6
821.524	667.8
821.943	668
822.34	683.4
822.759	658.4
823.157	671.8
823.576	674.8
823.974	661
824.393	793.6
824.791	651
825.189	643.6
825.609	659.4
826.007	657.6
826.427	648.8
826.826	646.6
827.246	671.2
827.644	649.2
828.043	683
828.463	654
828.862	677.4
829.261	663.2
829.682	646.4
830.081	669.8
830.502	650
830.901	664.2
831.301	647.8
831.722	643.6
832.121	659.8
832.521	652.6
832.943	656
833.342	655
833.742	644.2
834.164	666.2
834.564	642
834.965	650.8
835.386	654.8
835.787	654.8
836.188	648.6
836.588	660.8
837.01	656.8
837.411	644.4
837.812	658.8
838.213	665.2
838.636	655.6
839.037	736.2
839.438	656
839.84	664.6
840.263	671
840.664	666.4
841.066	658.6
841.468	666.4
841.891	653.4
842.293	668.4
842.695	675.4
843.098	667.6
843.5	659
843.902	667.4
844.326	661.6
844.729	660
845.131	668.6
845.534	654.2
845.937	670.4
846.34	677.6
846.764	655.6
847.167	663
847.571	654
847.974	653.8
848.377	656
848.781	714.6
849.184	672.8
849.588	651
849.992	664.2
850.396	656.8
850.821	671.4
851.225	662
851.63	652.6
852.034	663
852.438	661
852.843	700.6
853.247	638.4
853.652	647.6
854.057	665.4
854.462	653.8
854.867	657.6
855.272	683.6
855.677	664
856.082	647.2
856.487	649.2
856.893	662.6
857.298	653.2
857.704	640.4
858.11	656.2
858.516	655.8
858.922	655.2
859.328	666.8
859.734	655.2
860.14	659.4
860.525	656.2
860.931	647.8
861.338	662.4
861.745	658
862.151	663.4
862.558	661.4
862.965	649.2
863.372	653.6
863.779	658.2
864.186	679
864.572	652.8
864.98	675.6
865.387	690.2
865.795	652.6
866.203	660
866.61	641
867.018	662.4
867.405	667.2
867.813	643.6
868.221	644.2
868.63	641.8
869.038	669.4
869.425	702.6
869.834	660.8
870.243	656
870.652	645
871.039	651.4
871.448	646.2
871.857	661.6
872.266	658
872.654	654
873.064	651.4
873.473	668.4
873.883	653
874.271	638.8
874.681	667
875.091	642.6
875.48	665.8
875.89	677.8
876.3	641.8
876.689	643.8
877.1	653.4
877.51	656.6
877.9	682.2
878.31	652.8
878.721	697
879.111	664.6
879.522	653
879.933	649.2
880.323	642.8
880.734	649.4
881.125	656.4
881.536	654.2
881.948	650
882.338	646.8
882.75	656.4
883.141	649.6
883.553	665.4
883.944	680.8
884.356	654.6
884.769	656
885.16	655.4
885.573	659.2
885.964	649.2
886.377	661.4
886.768	639.8
887.181	656.6
887.573	637.8
887.987	662.8
888.378	663
888.792	656.6
889.184	711.4
889.598	646.6
889.99	656.4
890.383	644.8
890.797	641.8
891.19	665.2
891.604	644.2
891.997	645.4
892.411	644.8
892.805	645.8
893.198	649
893.613	641.4
894.006	651.4
894.421	646.2
894.815	659.4
895.209	649.6
895.624	700.6
896.018	673.6
896.412	639.8
896.828	650.8
897.222	664.8
897.617	651
898.033	673
898.427	661.4
898.822	646.2
899.239	647
899.634	643
900.029	672
900.424	651.2
900.841	634.8
901.236	665.8
901.632	658.6
902.027	716.2
902.445	661.8
902.841	649.4
903.237	654.4
903.633	672.6
904.05	669.2
904.447	661.6
904.843	674.8
905.24	665
905.636	647.2
906.033	650.6
906.451	673.8
906.848	651.4
907.246	667.4
907.643	659
908.04	661.2
908.438	664.6
908.835	653.4
909.254	662.4
909.652	659.6
910.05	653.2
910.448	644
910.846	647.6
911.244	643.4
911.643	657.8
912.041	648.6
912.44	675.4
912.839	647.6
913.237	647.6
913.636	646
914.035	657.6
914.434	648.2
914.834	663
915.233	667.8
915.633	654.8
916.032	641.6
916.432	646.2
916.832	674.4
917.232	658.2
917.632	647.8
918.032	660.8
918.432	649.6
918.833	653.8
919.233	648.2
919.634	636.4
920.035	659.2
920.436	649
920.837	667.4
921.238	648
921.639	650.6
922.019	657.6
922.42	660.8
922.822	661.4
923.224	655.8
923.625	652.6
924.027	647.8
924.429	671
924.81	652.8
925.212	665.4
925.615	654.2
926.017	650.8
926.42	673.6
926.801	650
927.204	646.4
927.607	658
928.01	667.2
928.413	658.2
928.795	643.4
929.199	648
929.602	647.4
930.006	648.8
930.388	644.6
930.792	662.2
931.196	652.8
931.579	698
931.983	651.8
932.388	699.6
932.771	641
933.176	644.4
933.58	651
933.964	666.4
934.369	633.4
934.774	660
935.158	658.2
935.563	661.8
935.947	651.8
936.353	662
936.759	654.2
937.143	664.4
937.549	664.2
937.934	666.8
938.34	674.2
938.746	649.8
939.131	651.8
939.538	650
939.923	657.2
940.33	636.8
940.716	652
941.123	663.6
941.508	658.8
941.916	670.2
942.302	662.6
942.709	639
943.096	648.4
943.503	659
943.89	656.4
944.298	638.4
944.685	684.6
945.072	649.4
945.48	655.6
945.867	646
946.276	649.6
946.663	679.6
947.051	669.6
947.46	661.2
947.848	650.4
948.257	648
948.645	654.6
949.033	645.8
949.443	638.4
949.831	698
950.22	647.4
950.63	663.4
951.018	679.4
951.407	658.2
951.796	650.2
952.207	654.8
952.596	652.4
952.985	643.2
953.375	687.8
953.786	654
954.176	630.4
954.566	661.2
954.956	636.4
955.367	642.8
955.758	669.6
956.148	641.4
956.539	662.2
956.929	636.2
957.341	637.2
957.732	640.4
958.123	657.4
958.515	645.4
958.906	658.6
959.297	646.8
959.689	647.6
960.102	644.4
960.494	660.6
960.886	635.4
961.278	654.2
961.67	679.4
962.062	704.8
962.455	653.4
962.847	644.2
963.24	654.4
963.633	655.6
964.026	638.2
964.419	647
964.812	659.2
965.206	639
965.599	659
965.993	653.8
966.386	643
966.78	655.4
967.174	666.4
967.569	639.8
967.963	643.4
968.357	639.6
968.752	636.4
969.146	642.2
969.541	638
969.936	646.4
970.331	647.2
970.705	653.6
971.1	648.8
971.496	657
971.892	641.8
972.287	648.4
972.683	653.2
973.079	648.2
973.454	662.8
973.85	656.4
974.247	661.6
974.643	674
975.04	648.6
975.415	646.2
975.812	639.6
976.209	661
976.607	641.6
976.982	660
977.38	667.6
977.778	652
978.175	647.8
978.552	649.2
978.95	659.2
979.348	663.4
979.725	707.4
980.123	646
980.522	649.6
980.899	643.6
981.298	645.6
981.697	643
982.075	647
982.474	642.2
982.852	653.4
983.251	650.8
983.651	641.8
984.029	657.8
984.429	644.4
984.808	643.8
985.208	652.4
985.609	645.4
985.987	632.4
986.388	639.2
986.768	651.2
987.168	640
987.548	649.4
987.949	657.6
988.329	648.8
988.731	629.6
989.111	650.4
989.491	650.4
989.893	645.4
990.273	663.8
990.676	639.8
991.057	650.6
991.459	647
991.84	653.6
992.221	632.6
992.624	676
993.006	652
993.388	654.6
993.791	653.6
994.173	653
994.576	685.2
994.959	641.8
995.341	636.2
995.724	648
996.128	648.6
996.511	651.2
996.894	632.8
997.298	635.4
997.681	646.4
998.065	663
998.448	643.4
998.854	655.6
999.237	643.8
999.621	662
1000.01	667.2
1000.39	658.8
1000.8	639.8
1001.18	661
1001.56	661
1001.95	658.6
1002.33	652.2
1002.72	650.2
1003.13	655
1003.51	648.8
1003.9	647.4
1004.28	661.8
1004.67	646.4
1005.06	649.6
1005.44	681.2
1005.83	638.2
1006.21	644.8
1006.6	645.4
1006.99	663.4
1007.37	660.2
1007.76	651.8
1060.12	642.2
1060.51	639.2
1060.89	655.6
1061.28	664
1061.67	673.2
1062.06	649.4
1062.45	649.4
1062.83	646.4
1063.22	657.2
1063.61	706.6
1064	665.2
1064.39	645
1064.78	644.4
1065.14	668.4
1065.53	654
1065.92	654.2
1066.31	643.6
1066.7	662
1067.09	662.4
1067.46	656.6
1067.85	647.8
1068.24	646.6
1068.63	666.4
1069.02	647.2
1069.39	661
1069.78	645
1070.17	646.8
1070.57	639.6
1070.93	658.2
1071.33	644.2
1071.72	657
1072.11	650.2
1072.48	646.2
1072.87	650.4
1073.26	650.4
1073.64	643
1074.03	630.6
1074.4	641.6
1074.79	651.6
1075.19	654.2
1075.56	647
1075.95	649.6
1076.34	649.6
1076.72	654.4
1077.11	650
1077.48	667.4
1077.88	646.2
1078.25	656.8
1078.64	652
1079.02	652.6
1079.41	656.2
1079.78	656
1080.18	650.6
1080.55	728.6
1080.95	652
1081.32	654
1081.72	646.4
1082.09	649.2
1082.49	652.6
1082.86	647.8
1083.24	635.4
1083.63	636.4
1084.01	650.2
1084.38	651.6
1084.78	640.8
1085.16	654
1085.55	659.6
1085.93	668
1086.31	642.8
1086.7	677.8
1087.08	652.6
1087.46	653.2
1087.83	645.6
1088.23	658.6
1088.61	654.4
1088.99	650.8
1089.36	643.8
1089.76	647
1090.14	654.6
1090.52	647.6
1090.9	640.4
1091.27	653.2
1091.67	678.4
1092.05	664.6
1092.43	649.6
1092.81	660
1093.19	669.4
1093.57	648.8
1093.95	651
1094.35	664.2
1094.73	658
1095.11	636.8
1095.49	654.6
1095.87	644.6
1096.25	663.4
1096.63	657.2
1097.01	648.4
1097.39	649.8
1097.77	644.4
1098.15	646.6
1098.53	640.2
1098.91	643.4
1099.29	648.6
1099.68	663.8
1100.06	653.4
1100.44	648.4
1100.82	652.8
1101.18	665
1101.56	640
1101.95	645.8
1102.33	642
1102.71	660.8
1103.1	634
1103.48	633.8
1103.86	642
1104.22	647.8
1104.61	643.8
1104.99	636.4
1105.38	632.2
1105.76	649.8
1106.12	637
1106.51	684.8
1106.89	659.2
1107.26	652.6
1107.64	654.6
1108.03	644.6
1108.41	643.4
1108.78	645.6
1109.16	652.4
1109.55	650.8
1109.91	638.6
1110.3	634
1110.69	669.2
1111.05	648.4
1111.44	647.4
1111.8	647.4
1112.19	648.6
1112.58	654
1112.94	649
1113.33	650.4
1113.7	642.8
1114.09	639
1114.45	631
1114.84	652
1115.21	658.2
1115.6	643
1115.96	652.8
1116.35	649.8
1116.72	637.2
1117.11	651.6
1117.48	641.8
1117.85	644.2
1118.24	663.4
1118.6	643.4
1118.99	637.2
1119.36	645.2
1119.73	649.6
1120.12	653
1120.49	632.4
1120.86	649.8
1121.25	647.6
1121.62	631.2
1121.99	637.2
1122.38	666.4
1122.76	650
1123.13	647.2
1123.5	652.6
1123.89	653.4
1124.26	631.8
1124.63	654
1125	656
1125.4	633
1125.77	631.8
1126.14	626.8
1126.51	637.6
1126.88	652.2
1127.26	642.4
1127.63	629.4
1128.02	643.6
1128.4	646.6
1128.77	641.8
1129.14	641.2
1129.52	652.6
1129.89	646.8
1130.26	632.8
1130.64	635.6
1131.01	638.4
