#lambda/nm	C1
208.295	540.6
208.67	486
209.045	454
209.419	449.4
209.794	688.6
210.169	664.8
210.544	806.4
210.919	692.6
211.295	679.8
211.67	687.8
212.045	685
212.421	680.8
212.796	728.8
213.172	685.8
213.547	683.6
213.923	686
214.299	678.6
214.675	685.4
215.051	696.6
215.427	694.2
215.803	698.8
216.179	690
216.555	681
216.932	692.8
217.308	686.2
217.684	683.8
218.061	691.6
218.438	687.6
218.814	680.8
219.191	695.4
219.568	676.6
219.945	682.2
220.322	681.6
220.699	697
221.076	693.8
221.453	694.4
221.83	674.8
222.208	677
222.585	679.6
222.962	688
223.34	689.8
223.717	686.6
224.095	679.2
224.473	681.4
224.851	682.8
225.229	666.6
225.607	707.8
225.985	670.4
226.363	686.4
226.741	687
227.119	679.4
227.497	696.2
227.876	671.6
228.254	692.8
228.633	685.2
229.011	681.8
229.39	691.6
229.769	687.6
230.148	689.4
230.527	709.2
230.905	683
231.284	690.8
231.664	679.8
232.043	700.8
232.422	699.8
232.801	681.8
233.181	693.2
233.56	677.4
233.94	684.6
234.319	675.4
234.699	684.6
235.079	737.2
235.458	728.4
235.838	712.8
236.218	667.4
236.598	681.4
236.978	673.4
237.358	674.8
237.738	676.6
238.119	688
238.499	683.4
238.88	683.4
239.26	703
239.641	669.4
240.021	682.8
240.402	683.8
240.783	674.4
241.163	681
241.544	683.4
241.925	681.4
242.306	703
242.687	688.2
243.069	680.4
243.45	699
243.831	691.6
244.212	684.2
244.594	726
244.975	707.2
245.357	690.4
245.739	680.6
246.12	682.4
246.502	701.2
246.884	686.8
247.266	681.2
247.648	694.2
248.03	716
248.412	689
248.794	686.4
249.176	681.8
249.559	693.2
249.941	680.8
250.323	673.6
250.706	674.8
251.089	684.6
251.471	691.4
251.854	687
252.237	683.2
252.62	694.2
253.002	686.2
253.385	679.4
253.769	698.2
254.152	686.8
254.535	698
254.918	670
255.301	677.8
255.685	682.2
256.068	675.8
256.452	714.4
256.835	694.2
257.219	688.2
257.603	702.6
257.986	676
258.37	687
258.754	672.6
259.138	693.8
259.522	685.4
259.906	683.4
260.29	701.8
260.675	683.2
261.059	692.8
261.443	669.4
261.828	693.2
262.212	692.2
262.597	676.8
262.981	680
263.366	701.6
263.751	688.6
264.136	674.4
264.521	678.4
264.906	681.6
265.291	698.4
265.676	689.4
266.061	697.4
266.446	705.2
266.831	690.6
267.217	708.6
267.602	686.6
267.987	697.8
268.373	682.6
268.759	700.4
269.144	688.8
269.53	682.2
269.916	685
270.302	686.4
270.688	689.4
271.074	688.2
271.46	700.2
271.846	717
272.232	675.4
272.618	679.8
273.004	675.8
273.391	701.6
273.777	705.8
274.164	701.4
274.55	704
274.937	684.8
275.324	687.8
275.71	699.8
276.097	697.8
276.484	680.8
276.871	695.8
277.258	697
277.645	682.4
278.032	682
278.419	684.2
278.807	697
279.194	676.6
279.581	687.4
279.969	688.6
280.356	684.6
280.744	680.8
281.131	717
281.519	695.2
281.907	678
282.295	685
282.682	694
283.07	686.8
283.458	692.6
283.846	691.2
284.235	705.4
284.623	703.4
285.011	678.6
285.399	690.8
285.788	681.6
286.176	679.2
286.565	700.4
286.953	675.2
287.342	688.4
287.731	683.8
288.119	678
288.508	687.4
288.897	694.8
289.286	667.2
289.675	692.4
290.064	706.4
290.453	675.6
290.821	693.2
291.21	712.6
291.599	681
291.989	687.2
292.378	695.6
292.768	722.2
293.157	689
293.547	698.4
293.936	681.6
294.326	688.2
294.716	689.4
295.106	690
295.496	703.4
295.886	694.2
296.276	691.6
296.666	680.6
297.056	677.8
297.446	684.2
297.836	703
298.227	690.6
298.617	698.4
299.008	705.4
299.398	687.8
299.789	689
300.179	697.6
300.57	709.6
300.961	679.4
301.352	682
301.742	709.2
302.133	683.6
302.524	681
302.915	690.8
303.307	680.6
303.698	695.4
304.089	695.4
304.48	681.2
304.872	698.6
305.263	698.8
305.655	684.6
306.046	693
306.438	691.6
306.829	687.6
307.221	704.8
307.613	692
308.005	694.4
308.397	703
308.789	708
309.181	718.8
309.573	703
309.965	702.2
310.357	688
310.749	708.6
311.142	687.4
311.534	682.6
311.926	696.4
312.319	689.8
312.711	674.2
313.104	699
313.497	691
313.889	743
314.282	703.6
314.675	723.8
315.068	692
315.461	693.8
315.854	729.2
316.247	703.6
316.64	691
317.033	689.2
317.405	698.2
317.798	692.2
318.192	698.6
318.585	683.2
318.979	696
319.372	669.6
319.766	684.2
320.16	709.6
320.553	707.8
320.947	709.4
321.341	689.2
321.735	689.2
322.129	677.2
322.523	729.4
322.917	684.8
323.311	704.8
323.705	688.4
324.099	693.8
324.494	710.6
324.888	697.4
325.282	693.8
325.677	705.8
326.071	698.6
326.466	699.2
326.861	683
327.255	699.6
327.65	700.8
328.045	708.6
328.44	688.4
328.835	692.4
329.23	690.4
329.625	708.2
330.02	685.2
330.415	716.2
330.81	691.4
331.206	697.6
331.601	684
331.996	694.8
332.37	721.8
332.766	678.8
333.161	719.6
333.557	681
333.953	690
334.348	1111.4
334.744	692
335.14	685.4
335.536	689.2
335.932	707.2
336.328	691.2
336.724	694.6
337.12	693.8
337.516	695.8
337.913	687
338.309	714.8
338.705	687.2
339.102	697.6
339.498	690.2
339.895	702.4
340.291	679.2
340.688	701
341.085	672.8
341.481	700
341.878	685.8
342.275	715
342.672	683.8
343.069	681.4
343.466	676.6
343.842	696.2
344.239	677
344.636	689.8
345.033	686.4
345.431	678.2
345.828	686.8
346.225	682.4
346.623	719.2
347.02	685
347.418	696.8
347.816	705
348.213	677.8
348.611	697.6
349.009	682.8
349.407	700.4
349.805	679.8
350.203	671.2
350.601	698.2
350.999	686.6
351.397	757
351.795	688.2
352.193	701.2
352.57	687.2
352.969	708.4
353.367	678.8
353.766	679
354.164	682.8
354.563	690.6
354.961	684.4
355.36	680.2
355.759	682.2
356.158	687
356.557	682.4
356.956	672
357.355	676.8
357.754	696.2
358.153	695.8
358.552	702.2
358.951	692.2
359.35	693.6
359.75	675.6
360.149	674.6
360.527	668
360.926	678.6
361.326	687
361.726	680.6
362.125	681.6
362.525	691.8
362.925	684
363.325	682.6
363.724	683.6
364.124	678.4
364.524	682.8
364.924	680
365.324	698
365.725	666.8
366.125	691.2
366.525	694.2
366.904	673.4
367.304	661
367.705	704.2
368.105	694
368.506	684.6
368.906	682
369.307	689
369.708	686.2
370.108	668.6
370.509	701.4
370.91	671.4
371.311	678.4
371.712	687.4
372.113	679.2
372.514	669
372.894	676.6
373.295	673.6
373.696	688.4
374.097	694.8
374.499	717.4
374.9	688
375.301	675
375.703	690.6
376.105	670
376.506	686.4
376.908	678.8
377.309	680.4
377.711	680.6
378.113	678.8
378.493	688
378.895	671
379.297	694.8
379.699	666.4
380.102	682.2
380.504	678.4
380.906	679
381.308	702.4
381.71	684.2
382.113	691.8
382.515	679.2
382.918	684
383.299	683.4
383.701	697.6
384.104	679
384.507	662.4
384.909	676
385.312	664.6
385.715	672
386.118	675.4
386.521	659.4
386.924	697.8
387.327	669.4
387.709	664.4
388.112	665.2
388.515	682.4
388.918	680.4
389.322	688.4
389.725	673.8
390.129	696.2
390.532	690.2
390.936	676.4
391.339	673.4
391.743	687.4
392.125	675.8
392.529	690.2
392.933	698.6
393.337	681.8
393.74	676.8
394.144	683.8
394.548	671.2
394.953	680.4
395.357	696.8
395.761	684.4
396.144	687.4
396.548	672.4
396.952	677
397.357	687.2
397.761	680
398.166	675.2
398.57	674.8
398.975	669.2
399.379	690.2
399.763	737.6
400.168	684
400.572	675
400.977	681.2
401.382	707.2
401.787	687
402.192	702.8
402.597	699.2
403.002	666.4
403.386	693
403.791	703.8
404.197	673.8
404.602	677.6
405.007	677
405.413	674.6
405.818	689.4
406.224	674.2
406.608	682.8
407.014	670.2
407.42	701.4
407.825	679.2
408.231	692
408.637	685.8
409.043	696
409.449	675.6
409.834	684.6
410.24	691
410.646	697.6
411.052	687.2
411.458	689
411.865	691.4
412.271	689
412.677	678.6
413.062	693.8
413.469	675.8
413.875	718
414.282	696.8
414.689	686.6
415.095	686.2
415.502	673.8
415.888	678.6
416.294	660.6
416.701	730.2
417.108	676.6
417.515	685
417.923	676.6
418.33	697.6
418.715	685.2
419.123	680.4
419.53	667.8
419.937	680
420.345	706.8
420.752	676
421.16	697.8
421.546	678.6
421.953	693.6
422.361	667.6
422.769	684.8
423.177	672
423.585	703.2
423.992	705.4
424.379	702.2
424.787	695.4
425.195	708.6
425.603	676.8
426.011	693.8
426.419	698
426.806	684
427.214	681.8
427.623	699.4
428.031	700
428.44	686
428.848	698.2
429.235	704.2
429.644	690.4
430.053	692.8
430.461	705.4
430.87	729
431.279	706.4
431.666	670.4
432.075	682.2
432.484	690.8
432.893	680
433.302	705.8
433.711	741.8
434.099	682.2
434.508	675.2
434.918	674.6
435.327	691.6
435.737	685.6
436.125	691.4
436.534	682.8
436.944	682.4
437.353	695.4
437.763	705.8
438.173	676
438.561	691.6
438.971	667
439.381	680
439.791	682
440.201	659.6
440.589	680
440.999	695.6
441.409	691
441.819	671.2
442.23	685.6
442.619	680.4
443.029	682.4
443.439	678.6
443.85	692.8
444.26	693.4
444.649	699.4
445.06	685.2
445.471	673.4
445.881	690.8
446.292	695.8
446.682	708.2
447.092	664.6
447.503	736.4
447.914	677.8
448.325	678.8
448.715	682.8
449.126	672.6
449.537	676.8
449.948	683.6
450.338	677
450.75	685
451.161	689.6
451.572	689.2
451.984	676.2
452.374	659.8
452.786	676.4
453.197	685.2
453.609	688.2
453.999	663.8
454.411	667
454.823	682.2
455.235	675.6
455.647	675
456.037	680.4
456.449	654.6
456.862	677.2
457.274	679.4
457.665	664
458.077	679.6
458.489	714
458.902	672
459.293	672.6
459.705	682
460.118	668.2
460.53	683.8
460.921	683.4
461.334	675.2
461.747	684.8
462.16	695.2
462.551	695.4
462.964	689.6
463.377	666.6
463.79	683
464.182	684.2
464.595	675
465.008	683.8
465.421	685.6
465.813	680.2
466.226	683
466.64	676.2
467.053	727.2
467.445	682.2
467.859	697.6
468.272	679.2
468.686	704.2
469.078	678.4
469.492	674.4
469.906	677.4
470.298	690.6
470.712	670.6
471.126	737.6
471.54	662.4
471.933	676.8
472.347	674.4
472.761	668.4
473.175	666
473.568	673.4
473.982	669.6
474.397	682.4
474.79	685.8
475.204	686.4
475.619	686
476.033	677
476.426	678
476.841	665.4
477.256	698.2
477.649	674.6
478.064	665
478.479	665.8
478.872	660.6
479.287	653.6
479.702	665.6
480.118	673
480.511	673
480.927	665.6
481.342	676.2
481.736	681.4
482.151	666.4
482.566	683.2
482.96	675.4
483.376	681.2
483.792	674.8
484.186	684
484.602	661.8
485.017	676.8
485.412	680.4
485.827	678
486.243	666.4
486.638	706.6
487.054	684.8
487.47	683.6
487.865	669.2
488.281	672.6
488.697	665
489.092	668.6
489.508	662
489.925	684.8
490.32	660.6
490.736	677.8
491.153	671.6
491.548	688.8
491.964	679.6
492.381	650.4
492.776	675.8
493.193	673.6
493.61	685
494.006	672.2
494.422	672.4
494.84	658.8
495.235	690
495.652	678.2
496.069	666.4
496.465	664.8
496.883	674.8
497.3	692.8
497.696	669
498.113	677
498.509	656
498.927	662.2
499.344	657.6
499.741	660.4
500.158	680.6
500.576	689.8
500.973	677
501.39	668.2
501.787	659.2
502.205	672.4
502.623	666.8
503.02	661
503.438	664.8
503.856	674.4
504.253	678
504.671	669.4
505.068	663.8
505.486	664.6
505.905	693
506.302	672.2
506.72	680
507.118	659.8
507.536	675.2
507.955	672.6
508.352	677.2
508.771	675.6
509.169	685.2
509.587	673
510.006	668
510.404	659.8
510.823	666.6
511.221	675.6
511.64	668.2
512.038	690.4
512.457	669.8
512.877	669
513.275	657
513.694	669.4
514.092	663.6
514.512	671.4
514.91	669.2
515.33	669.2
515.749	674.6
516.148	668.2
516.568	670.8
516.966	672.2
517.386	660.4
517.785	665.8
518.205	660.4
518.603	665.6
519.024	656
519.444	666.6
519.843	683.6
520.263	682
520.662	674.2
521.082	668.8
521.481	682
521.902	672.4
522.301	675.2
522.722	668.8
523.121	667
523.542	664.6
523.963	672
524.362	677
524.783	670.6
525.183	673.2
525.604	674.8
526.003	654.8
526.425	660.2
526.824	677.4
527.246	672
527.646	679.2
528.067	668.4
528.467	673.8
528.888	687.8
529.289	665.6
529.71	663
530.11	662.8
530.532	662.2
530.932	658
531.354	658.8
531.755	704.6
532.176	673.8
532.577	668.2
532.999	670
533.4	659.4
533.822	682.2
534.223	665.2
534.645	665.4
535.046	661.2
535.468	666.8
535.869	689.6
536.292	664.6
536.693	711.4
537.115	665.8
537.516	660.6
537.939	664
538.34	690.8
538.742	689.6
539.165	663.2
539.566	671.4
539.989	654.6
540.391	664.6
540.814	677.2
541.216	670.4
541.639	661.8
542.041	676.4
542.464	659
542.866	659.8
543.268	651.6
543.691	670.8
544.093	680.8
544.517	687.8
544.919	658.6
545.343	689
545.745	661
546.147	674.2
546.571	669.4
546.974	661.4
547.398	672.2
547.8	681
548.224	662.8
548.627	653.6
549.03	670.4
549.454	659.2
549.857	649.4
550.281	656.6
550.684	656.4
551.087	678.2
551.512	668.4
551.915	674
552.34	664.2
552.743	664.2
553.146	669.4
553.571	669
553.975	692
554.399	659.8
554.803	722.2
555.207	671
555.632	660.4
556.036	675
556.461	657.6
556.865	672.6
557.268	662.2
557.694	665.8
558.098	675.8
558.502	666.8
558.927	671.6
559.332	668
559.736	657.8
560.162	671.2
560.566	661.6
560.992	670
561.396	668.6
561.801	660
562.227	666.2
562.631	667.2
563.036	665.6
563.462	670.8
563.867	674.4
564.272	655.6
564.698	662.2
565.103	648.2
565.508	691.4
565.935	669.2
566.34	652.2
566.745	673
567.172	661
567.577	687.2
567.982	687
568.409	682.2
568.815	656.6
569.22	671.6
569.626	670.4
570.053	658
570.459	662
570.865	679.8
571.292	678.4
571.698	671.4
572.104	655.2
572.531	661.2
572.937	680.4
573.343	670.2
573.75	666.4
574.177	659.2
574.583	673.8
574.99	662.4
575.396	672.4
575.824	658.8
576.231	676.8
576.637	659.6
577.065	696.8
577.472	655.2
577.879	663.6
578.286	676.2
578.714	660.8
579.121	664.8
579.528	674.6
579.935	680.6
580.364	658.4
580.771	656.2
581.178	646.4
581.585	673.8
582.014	675.4
582.421	666
582.829	658
583.236	678.8
583.644	662.8
584.073	659.6
584.481	671.6
584.889	659.2
585.296	670
585.726	668
586.134	656.8
586.542	656.4
586.95	681.6
587.358	655.4
587.787	666.2
588.196	646.8
588.604	660.2
589.012	666.4
589.421	654
589.851	657
590.259	672
590.668	665.6
591.076	702
591.485	661
591.894	665
592.324	685.2
592.733	685.6
593.142	649.6
593.551	653.6
593.96	667
594.369	658.2
594.8	647.6
595.209	669.2
595.618	649.2
596.028	654.4
596.437	649.6
596.847	667.2
597.256	667.2
597.687	661.8
598.097	658
598.507	654.4
598.917	671
599.327	669.8
599.736	663.8
600.146	682.8
600.556	660.2
600.988	673.6
601.398	651.4
601.808	668.2
602.219	656.2
602.629	669.4
603.039	664.8
603.45	694.6
603.86	666.8
604.271	679.6
604.703	670.4
605.114	659.2
605.525	667
605.935	672.6
606.346	691.2
606.757	665
607.168	666.2
607.579	667.8
607.99	678.2
608.402	668.4
608.813	676
609.224	656.4
609.636	661.6
610.047	654
610.48	667.6
610.892	676.2
611.303	676.8
611.715	662.4
612.127	665.6
612.539	653.2
612.95	658
613.362	638.2
613.774	655.8
614.186	659
614.599	653.8
615.011	676.2
615.423	671.4
615.835	662.8
616.248	654.8
616.66	668.8
617.073	651.2
617.485	666.6
617.898	672
618.311	661.6
618.723	664.4
619.136	700.2
619.549	677.2
619.962	680
620.375	657.4
620.788	662.8
621.201	652.8
621.614	674.2
622.028	652
622.441	665.2
622.854	675.8
623.268	656.4
623.681	670.4
624.095	662.8
624.509	674.4
624.922	673.6
625.336	650.4
625.728	661
626.142	674.4
626.556	678.2
626.97	667.2
627.384	658.4
627.799	661.4
628.213	672.2
628.627	663.4
629.041	661
629.456	660
629.87	658.2
630.285	669.4
630.699	671
631.093	658.2
631.507	663.8
631.922	675.2
632.337	675.6
632.752	647.4
633.167	658.8
633.582	660.8
633.997	654.6
634.412	652.4
634.806	667.6
635.221	651.4
635.637	672
636.052	645.8
636.468	669.2
636.883	692.4
637.299	650.6
637.715	645
638.109	662.4
638.525	647.8
638.941	676.4
639.357	671.6
639.773	684.2
640.189	658.6
640.584	660.4
641	662.8
641.416	643.2
641.832	657.2
642.249	655.2
642.665	662
643.06	669
643.477	666.2
643.894	644.4
644.31	656.6
644.727	662.2
645.123	659
645.54	647
645.957	664
646.374	676.8
646.77	661.2
647.187	688.6
647.604	660.6
648.021	652
648.439	654
648.835	663.8
649.252	660.4
649.67	658.2
650.088	662.8
650.484	664.2
650.902	678.6
651.32	660.8
651.738	648.2
652.134	659
652.552	678.8
652.971	662.8
653.389	659.4
653.786	663.6
654.204	679.6
654.622	664.6
655.019	662.2
655.438	663.8
655.857	666.2
656.275	666.2
656.673	655.6
657.091	746.4
657.51	652.4
657.908	679
658.327	681
658.746	649.2
659.144	667
659.563	674
659.982	665.6
660.38	654
660.8	663
661.219	672.4
661.617	660.8
662.037	663.8
662.457	672
662.855	651.4
663.275	693.8
663.695	662.4
664.094	667.6
664.514	663.8
664.934	653.4
665.333	671.8
665.753	645.6
666.152	654.8
666.572	653.8
666.993	676
667.392	657.2
667.812	663.4
668.212	656.4
668.632	668.8
669.053	653.8
669.453	667.6
669.874	656.6
670.273	663
670.694	650
671.116	674.8
671.515	675.6
671.937	658.6
672.337	649.2
672.758	656.6
673.158	672.6
673.58	653.4
673.98	665.2
674.402	672
674.824	663.4
675.224	659
675.646	659.4
676.047	666.4
676.469	667.4
676.869	666.6
677.292	671.2
677.693	656.4
678.115	652.2
678.516	666.6
678.939	673.2
679.34	659
679.762	670.4
680.164	664.6
680.586	652.8
680.988	670.4
681.411	685.8
681.812	661.2
682.236	653
682.637	648
683.061	646.2
683.462	670
683.864	667.2
684.288	668.2
684.69	660.2
685.114	679.8
685.516	669.4
685.94	646.2
686.342	670
686.766	656.6
687.168	653
687.571	686.8
687.995	666.6
688.398	642.8
688.822	654.4
689.225	679.8
689.628	683.2
690.052	658.2
690.456	673.2
690.88	654.8
691.284	646.4
691.687	666.6
692.112	651.8
692.515	648.2
692.919	655.8
693.344	667.6
693.747	648.4
694.173	653.8
694.577	666.6
694.98	662.2
695.406	668.8
695.81	670.6
696.214	656
696.64	659.2
697.044	662.6
697.448	662.8
697.874	657
698.279	652.4
698.684	646.2
699.11	649.8
699.514	653.4
699.919	659
700.324	654.2
700.75	667
701.156	652.4
701.561	660.4
701.987	656.4
702.393	665.4
702.798	668
703.203	662.4
703.63	659.4
704.036	652.2
704.442	662.6
704.847	654
705.274	669.8
705.68	663
706.086	665.8
706.492	655.2
706.92	663.2
707.326	668.8
707.732	659.8
708.139	652.8
708.545	652.6
708.973	655.4
709.38	663.4
709.786	641.6
710.193	675.8
710.6	658.8
711.028	650.6
711.435	656.8
711.842	646
712.249	657.2
712.656	659.6
713.064	667.4
713.492	649.6
713.9	660.2
714.307	665.6
714.715	669.8
715.123	659.4
715.53	660.2
715.938	667.8
716.367	660.8
716.775	653.8
717.184	650
717.592	650.6
718	672.4
718.408	696
718.816	714.4
719.225	657.6
719.633	663
720.042	653
720.472	660.8
720.881	679.8
721.29	675
721.699	644.2
722.108	665.2
722.517	656.8
722.926	651.2
723.335	674
723.744	656.4
724.154	664.8
724.563	663.2
724.973	664.2
725.382	656
725.792	660.6
726.202	649.6
726.612	686.4
727.022	663.2
727.432	652.4
779.813	657.2
780.223	700
780.634	656.8
781.044	655.8
781.454	662.6
781.865	663.8
782.276	644
782.686	671.8
783.097	654
783.508	663.4
783.919	671.2
784.33	673.4
784.741	669.6
785.152	650.2
785.563	647
785.974	648.6
786.386	668.6
786.776	652.4
787.188	656
787.599	640.6
788.011	667.6
788.423	656
788.835	654.4
789.247	642.8
789.659	640.4
790.071	661.2
790.483	706.8
790.874	664
791.286	661.2
791.699	647.4
792.111	654.2
792.524	661.2
792.937	652.2
793.349	644
793.741	646.2
794.154	658.2
794.567	674
794.98	657.4
795.393	642.2
795.785	677
796.198	652.8
796.612	660.6
797.026	656.2
797.439	632
797.831	654.6
798.245	644.4
798.659	653.8
799.073	649.4
799.487	644.2
799.88	651.8
800.294	652.4
800.708	664
801.123	660.4
801.516	678.8
801.93	647.2
802.345	635.4
802.76	655.8
803.153	668.8
803.568	674.8
803.983	664
804.377	659.4
804.792	640
805.207	635.8
805.601	655.4
806.016	695.4
806.432	647
806.826	688.8
807.242	666.2
807.658	651
808.052	649
808.468	642.8
808.884	654.8
809.279	654.8
809.695	668.2
810.111	680.6
810.506	656.4
810.922	676
811.339	655
811.734	671
812.151	653.2
812.546	649.2
812.963	647.2
813.38	654.8
813.776	657.8
814.193	682
814.589	653.2
815.006	647
815.402	638.6
815.82	649.2
816.237	651.6
816.633	658.8
817.051	641
817.448	649.4
817.866	645.2
818.262	681.4
818.68	650
819.077	647.4
819.495	656.2
819.892	691.8
820.311	640.6
820.708	644.4
821.127	645.2
821.524	663.6
821.943	655.4
822.34	676.8
822.759	660.6
823.157	655.6
823.576	675.8
823.974	665.4
824.393	781.6
824.791	653
825.189	646.4
825.609	644.8
826.007	656.6
826.427	637.4
826.826	656.4
827.246	656.8
827.644	637
828.043	673.8
828.463	649.6
828.862	659.2
829.261	670.6
829.682	638.2
830.081	663.8
830.502	637.4
830.901	662.6
831.301	652.2
831.722	643.2
832.121	660.4
832.521	653.2
832.943	650.4
833.342	663.6
833.742	651.4
834.164	655.6
834.564	631.8
834.965	655.6
835.386	651.2
835.787	648.6
836.188	655.2
836.588	658.8
837.01	648.6
837.411	648.6
837.812	668.4
838.213	665.8
838.636	656.4
839.037	731.8
839.438	658
839.84	654.8
840.263	671.6
840.664	662.6
841.066	655.2
841.468	660.8
841.891	645.6
842.293	671
842.695	658.2
843.098	665.4
843.5	660.8
843.902	654.8
844.326	656.8
844.729	658.4
845.131	665
845.534	663.2
845.937	669.8
846.34	675.4
846.764	648.2
847.167	655
847.571	643.8
847.974	655.8
848.377	647.2
848.781	715.2
849.184	674.6
849.588	653.4
849.992	650.8
850.396	654.2
850.821	675.8
851.225	660.6
851.63	654.4
852.034	673.4
852.438	649
852.843	696.8
853.247	643.2
853.652	642.6
854.057	675.6
854.462	654.2
854.867	659.2
855.272	686.6
855.677	655.8
856.082	650.4
856.487	645.2
856.893	656
857.298	650.2
857.704	649.6
858.11	657.6
858.516	670.6
858.922	656.6
859.328	663.8
859.734	649.6
860.14	662.2
860.525	644.8
860.931	648.8
861.338	654.6
861.745	659.6
862.151	666.8
862.558	657.2
862.965	641.4
863.372	650.2
863.779	651
864.186	682.4
864.572	651.4
864.98	677.4
865.387	690.2
865.795	642.2
866.203	663
866.61	645
867.018	656
867.405	668.8
867.813	654.2
868.221	655
868.63	652
869.038	657.4
869.425	695.8
869.834	656.8
870.243	646.8
870.652	650.2
871.039	656.8
871.448	657
871.857	659.6
872.266	666.4
872.654	653
873.064	650
873.473	665.6
873.883	649
874.271	645.8
874.681	662
875.091	644.8
875.48	664.6
875.89	676.8
876.3	645
876.689	634.4
877.1	650.6
877.51	653.4
877.9	680
878.31	649
878.721	684.2
879.111	651.6
879.522	646.8
879.933	641
880.323	636.8
880.734	642
881.125	655.4
881.536	653.6
881.948	645.4
882.338	660.8
882.75	664.4
883.141	650.6
883.553	665.8
883.944	695.6
884.356	664.2
884.769	648
885.16	643.6
885.573	650.4
885.964	649.2
886.377	659.2
886.768	638.2
887.181	649.8
887.573	637.8
887.987	660.8
888.378	661.4
888.792	658
889.184	709.6
889.598	643.8
889.99	645.8
890.383	651.2
890.797	637.4
891.19	648.4
891.604	645.4
891.997	641.2
892.411	641.8
892.805	637.2
893.198	642.8
893.613	637.8
894.006	653.2
894.421	639.6
894.815	644.6
895.209	647.6
895.624	696.6
896.018	663.2
896.412	645.2
896.828	642.2
897.222	653.6
897.617	647
898.033	675
898.427	647
898.822	651.4
899.239	635.6
899.634	644.4
900.029	669.6
900.424	648.4
900.841	647.6
901.236	655.6
901.632	659.8
902.027	722.8
902.445	665.8
902.841	654.4
903.237	651.6
903.633	674
904.05	660.2
904.447	664.6
904.843	664
905.24	659.2
905.636	643.4
906.033	666
906.451	660.4
906.848	645.2
907.246	646.2
907.643	658.8
908.04	665.4
908.438	664.8
908.835	666.6
909.254	642.4
909.652	658
910.05	653.8
910.448	646.8
910.846	653.6
911.244	643
911.643	656.6
912.041	650.4
912.44	671.6
912.839	635.8
913.237	640.8
913.636	648.6
914.035	663.8
914.434	652
914.834	656.8
915.233	655.4
915.633	638.8
916.032	647.4
916.432	643.4
916.832	663
917.232	645.6
917.632	641.8
918.032	656.6
918.432	649.8
918.833	646
919.233	653.2
919.634	636.6
920.035	651.4
920.436	647.8
920.837	651.4
921.238	641.6
921.639	647.8
922.019	650.4
922.42	652.6
922.822	654.8
923.224	647.8
923.625	649
924.027	650
924.429	673
924.81	654.4
925.212	663.4
925.615	656.6
926.017	646.6
926.42	655.8
926.801	649.6
927.204	641.8
927.607	662.4
928.01	669.2
928.413	650.6
928.795	638.2
929.199	651.6
929.602	641.2
930.006	645
930.388	650.6
930.792	651.8
931.196	641
931.579	694.8
931.983	645.4
932.388	696.8
932.771	648.2
933.176	642.2
933.58	651.6
933.964	665.2
934.369	639.6
934.774	658.4
935.158	646.2
935.563	644
935.947	656.2
936.353	662
936.759	648.4
937.143	655.6
937.549	656.2
937.934	665
938.34	668.4
938.746	642.2
939.131	652.8
939.538	643.4
939.923	658
940.33	646
940.716	649.6
941.123	655.6
941.508	659.6
941.916	668.8
942.302	656.6
942.709	635.8
943.096	647.2
943.503	659.2
943.89	649
944.298	645.4
944.685	679.6
945.072	650.4
945.48	662.4
945.867	644
946.276	648.2
946.663	679.8
947.051	672
947.46	660.4
947.848	652.2
948.257	642.8
948.645	649.2
949.033	647.8
949.443	656.6
949.831	704.8
950.22	640.4
950.63	651.2
951.018	684.4
951.407	653.4
951.796	649
952.207	656.6
952.596	651.8
952.985	636.8
953.375	695.4
953.786	648.8
954.176	639
954.566	651.2
954.956	645.8
955.367	643.4
955.758	674
956.148	638.2
956.539	652.2
956.929	645.8
957.341	631.4
957.732	652.4
958.123	663
958.515	641.2
958.906	674.4
959.297	644.6
959.689	649.4
960.102	642.2
960.494	649
960.886	645.2
961.278	647
961.67	678.6
962.062	693
962.455	646.6
962.847	645.2
963.24	656.8
963.633	646.8
964.026	641.2
964.419	650.6
964.812	665.8
965.206	649.8
965.599	659.2
965.993	656
966.386	657.6
966.78	672.4
967.174	661.8
967.569	649.2
967.963	645
968.357	638.4
968.752	645.4
969.146	644
969.541	641.6
969.936	644.4
970.331	648
970.705	637.8
971.1	648
971.496	660.2
971.892	642
972.287	650.8
972.683	640
973.079	646.8
973.454	663.4
973.85	652
974.247	652.8
974.643	680.6
975.04	651
975.415	645.4
975.812	641.4
976.209	648
976.607	648.2
976.982	654
977.38	661.8
977.778	642
978.175	650.8
978.552	651.8
978.95	651.4
979.348	662.6
979.725	710.8
980.123	646.8
980.522	642.4
980.899	646.2
981.298	638
981.697	644.2
982.075	646
982.474	642
982.852	651.4
983.251	651.2
983.651	648
984.029	656.2
984.429	647.8
984.808	640
985.208	644
985.609	642
985.987	628.4
986.388	641
986.768	649.6
987.168	641.8
987.548	653
987.949	657.8
988.329	647.8
988.731	629.2
989.111	636.8
989.491	644.8
989.893	644.8
990.273	649.8
990.676	648.8
991.057	645.4
991.459	643
991.84	645
992.221	629
992.624	671.2
993.006	650.2
993.388	643.2
993.791	657.6
994.173	655
994.576	681.4
994.959	640.6
995.341	632
995.724	646
996.128	636.4
996.511	649.2
996.894	648
997.298	638.4
997.681	658.6
998.065	650.4
998.448	637.4
998.854	654
999.237	642.2
999.621	654.6
1000.01	663.2
1000.39	653.4
1000.8	650.8
1001.18	658.2
1001.56	648
1001.95	650.6
1002.33	650.2
1002.72	643.4
1003.13	643.6
1003.51	633.8
1003.9	643.6
1004.28	662.2
1004.67	637.8
1005.06	647.6
1005.44	680.4
1005.83	633.4
1006.21	650.4
1006.6	639.4
1006.99	658.6
1007.37	661.4
1007.76	640.8
1060.12	633.6
1060.51	632.6
1060.89	648.2
1061.28	654.8
1061.67	655.6
1062.06	646.8
1062.45	649
1062.83	636.8
1063.22	658.8
1063.61	685.8
1064	662.8
1064.39	643.4
1064.78	640.4
1065.14	660
1065.53	660
1065.92	655.8
1066.31	636.8
1066.7	653
1067.09	654.4
1067.46	664.8
1067.85	640.8
1068.24	650
1068.63	657.2
1069.02	648.4
1069.39	650.8
1069.78	641.8
1070.17	643.4
1070.57	639.8
1070.93	657.2
1071.33	638
1071.72	654.8
1072.11	649.8
1072.48	630.2
1072.87	648
1073.26	643.6
1073.64	641.6
1074.03	639.2
1074.4	648.6
1074.79	647.6
1075.19	645.6
1075.56	648
1075.95	648.4
1076.34	643
1076.72	648.4
1077.11	650.2
1077.48	668.8
1077.88	644.4
1078.25	646
1078.64	651.6
1079.02	658.2
1079.41	659.6
1079.78	647.2
1080.18	645.6
1080.55	729
1080.95	646.8
1081.32	652
1081.72	645.6
1082.09	657.2
1082.49	636.6
1082.86	646.4
1083.24	639
1083.63	630.8
1084.01	641.6
1084.38	657.2
1084.78	641.4
1085.16	646.8
1085.55	665.2
1085.93	666.4
1086.31	635.4
1086.7	679.8
1087.08	651
1087.46	640.6
1087.83	636.6
1088.23	649.2
1088.61	639.6
1088.99	648.2
1089.36	633.4
1089.76	654.4
1090.14	653.6
1090.52	638.8
1090.9	638.6
1091.27	659.2
1091.67	676.4
1092.05	659.8
1092.43	642.8
1092.81	664.8
1093.19	650.6
1093.57	652.2
1093.95	644.6
1094.35	659.6
1094.73	658
1095.11	638.2
1095.49	642.8
1095.87	645
1096.25	663
1096.63	655.2
1097.01	645.2
1097.39	656.6
1097.77	645.4
1098.15	648.6
1098.53	644
1098.91	653.6
1099.29	649.6
1099.68	672.6
1100.06	663.2
1100.44	650.4
1100.82	649
1101.18	656.2
1101.56	638.2
1101.95	641.4
1102.33	646.2
1102.71	648.8
1103.1	642.4
1103.48	633.8
1103.86	635.8
1104.22	648.6
1104.61	647.4
1104.99	634.4
1105.38	639
1105.76	647.2
1106.12	644.4
1106.51	689.8
1106.89	653.6
1107.26	646.8
1107.64	657
1108.03	638.2
1108.41	642.6
1108.78	654.2
1109.16	649.6
1109.55	659.8
1109.91	640.6
1110.3	631.2
1110.69	656.8
1111.05	643.4
1111.44	639.6
1111.8	648.2
1112.19	644.8
1112.58	652.4
1112.94	649
1113.33	638.6
1113.7	632.4
1114.09	636.2
1114.45	637.4
1114.84	645.6
1115.21	655.4
1115.6	643.8
1115.96	649.6
1116.35	654.6
1116.72	633.6
1117.11	663.6
1117.48	641.2
1117.85	648.2
1118.24	661.4
1118.6	651.6
1118.99	634.8
1119.36	650.6
1119.73	645.6
1120.12	651.8
1120.49	630.4
1120.86	653.4
1121.25	647.2
1121.62	631.8
1121.99	637.6
1122.38	667.6
1122.76	642.6
1123.13	647.6
1123.5	652.6
1123.89	649.8
1124.26	634
1124.63	650.4
1125	644.6
1125.4	626.6
1125.77	633
1126.14	613.6
1126.51	640.6
1126.88	649.2
1127.26	647.2
1127.63	619.6
1128.02	637.8
1128.4	640.8
1128.77	642.4
1129.14	637.2
1129.52	650.4
1129.89	653.6
1130.26	636
1130.64	637.2
1131.01	637.6
