#lambda/nm	C1
208.295	537.8
208.67	493
209.045	453
209.419	451.8
209.794	687
210.169	668.4
210.544	814.8
210.919	691.2
211.295	683.8
211.67	685.2
212.045	687.6
212.421	678
212.796	732.8
213.172	681.8
213.547	678
213.923	687.6
214.299	683.4
214.675	697.2
215.051	691
215.427	688.8
215.803	705.8
216.179	690
216.555	675.4
216.932	698.6
217.308	681.4
217.684	686
218.061	689.6
218.438	699
218.814	686.8
219.191	690
219.568	677.8
219.945	683.4
220.322	694
220.699	688.4
221.076	699.8
221.453	690.6
221.83	678.8
222.208	680.6
222.585	686.2
222.962	695.8
223.34	693
223.717	686.4
224.095	690.2
224.473	688.4
224.851	674.4
225.229	680.6
225.607	704.4
225.985	681.8
226.363	683
226.741	684
227.119	687.4
227.497	705.6
227.876	674.4
228.254	702.6
228.633	686.2
229.011	690.4
229.39	691
229.769	686.6
230.148	690.6
230.527	702.8
230.905	674.4
231.284	693.4
231.664	680.4
232.043	708.2
232.422	693.6
232.801	685.2
233.181	694
233.56	684.2
233.94	688.8
234.319	686
234.699	673.8
235.079	727.8
235.458	730.8
235.838	709.4
236.218	676.6
236.598	680
236.978	686.4
237.358	683.2
237.738	677.8
238.119	695.2
238.499	673.4
238.88	692.8
239.26	698
239.641	666.8
240.021	683
240.402	695.8
240.783	679.4
241.163	686.8
241.544	684.4
241.925	686.2
242.306	703
242.687	683.6
243.069	684.6
243.45	684.8
243.831	688.4
244.212	678.4
244.594	724.8
244.975	697.6
245.357	695
245.739	689.4
246.12	688
246.502	705.4
246.884	684.4
247.266	690.6
247.648	687.4
248.03	709.6
248.412	689.4
248.794	688.4
249.176	681.2
249.559	698.2
249.941	679.2
250.323	672.2
250.706	680
251.089	699
251.471	683.8
251.854	693.4
252.237	693.2
252.62	699.2
253.002	690.4
253.385	683
253.769	709
254.152	679.6
254.535	692.2
254.918	676.6
255.301	685.4
255.685	681
256.068	684.6
256.452	717.8
256.835	700.6
257.219	696.2
257.603	704.6
257.986	684.6
258.37	699.2
258.754	673.2
259.138	693.8
259.522	699
259.906	683
260.29	689.2
260.675	684.4
261.059	697.6
261.443	680.8
261.828	687.8
262.212	695.8
262.597	681.6
262.981	683.6
263.366	696.6
263.751	693.2
264.136	681
264.521	681.4
264.906	680
265.291	701.6
265.676	682.6
266.061	693.6
266.446	719.8
266.831	680.2
267.217	709
267.602	696.4
267.987	693.6
268.373	684.2
268.759	697.6
269.144	694.4
269.53	682.8
269.916	686.8
270.302	681.6
270.688	696
271.074	694.2
271.46	703.4
271.846	728
272.232	685
272.618	684.4
273.004	689.6
273.391	697.6
273.777	709.6
274.164	696
274.55	698.4
274.937	683.8
275.324	688
275.71	699.8
276.097	691.6
276.484	676.2
276.871	691.6
277.258	692.4
277.645	679.8
278.032	690.8
278.419	683.2
278.807	703.6
279.194	679
279.581	684.4
279.969	701.2
280.356	687.2
280.744	682.4
281.131	714.6
281.519	692.4
281.907	684.4
282.295	695.6
282.682	695
283.07	685
283.458	699.4
283.846	701.4
284.235	704.6
284.623	707.4
285.011	683.2
285.399	694.4
285.788	692.8
286.176	680.4
286.565	704.8
286.953	679.2
287.342	693.4
287.731	676.6
288.119	678.4
288.508	688.6
288.897	688
289.286	680.6
289.675	689.6
290.064	708.2
290.453	687
290.821	689.2
291.21	703.2
291.599	680.4
291.989	700.2
292.378	695
292.768	708.2
293.157	690.8
293.547	703.8
293.936	689.4
294.326	678.6
294.716	697.4
295.106	687.8
295.496	697.6
295.886	707.6
296.276	683.4
296.666	685.2
297.056	680.2
297.446	671.6
297.836	707.8
298.227	678.4
298.617	686.8
299.008	701.2
299.398	675
299.789	678
300.179	696.8
300.57	715.4
300.961	682
301.352	686.8
301.742	696.2
302.133	686
302.524	685.4
302.915	697.4
303.307	681
303.698	703.2
304.089	698
304.48	684.4
304.872	702.6
305.263	692.6
305.655	684
306.046	690.8
306.438	693.8
306.829	685.4
307.221	703.8
307.613	696.4
308.005	698.4
308.397	713.8
308.789	712
309.181	714.4
309.573	714.6
309.965	699
310.357	689
310.749	708.2
311.142	692
311.534	684.8
311.926	694.2
312.319	695
312.711	687
313.104	701.2
313.497	695.2
313.889	739.6
314.282	712.6
314.675	730.8
315.068	700.2
315.461	695.2
315.854	722.6
316.247	698.4
316.64	695.4
317.033	693.2
317.405	712
317.798	690.6
318.192	696.6
318.585	688.6
318.979	700.6
319.372	690
319.766	688.6
320.16	700.4
320.553	707.6
320.947	716.2
321.341	688.2
321.735	684.8
322.129	679
322.523	726.2
322.917	674.2
323.311	710.2
323.705	690.2
324.099	687.8
324.494	710.6
324.888	707.4
325.282	692.4
325.677	705.8
326.071	701.6
326.466	702.2
326.861	690.4
327.255	706
327.65	708
328.045	717
328.44	698.4
328.835	697.8
329.23	689.2
329.625	717
330.02	679.2
330.415	726.4
330.81	690.4
331.206	682
331.601	682.4
331.996	691
332.37	716.8
332.766	679.8
333.161	706.8
333.557	690.2
333.953	686.6
334.348	1114.6
334.744	692.4
335.14	694.8
335.536	684.6
335.932	705.4
336.328	686.2
336.724	699
337.12	682.2
337.516	688.6
337.913	692.6
338.309	713.4
338.705	698.8
339.102	713.4
339.498	695.2
339.895	710.2
340.291	693.6
340.688	704.6
341.085	688.4
341.481	690.2
341.878	683.6
342.275	720.4
342.672	670.8
343.069	689
343.466	680.8
343.842	712.6
344.239	681.4
344.636	692.4
345.033	687.2
345.431	690.6
345.828	688.6
346.225	688.8
346.623	731.4
347.02	692.6
347.418	702.4
347.816	698.4
348.213	679.2
348.611	698.8
349.009	688
349.407	705.4
349.805	675.6
350.203	678
350.601	712
350.999	680.4
351.397	749.8
351.795	688
352.193	702
352.57	698
352.969	708.4
353.367	671.2
353.766	675.4
354.164	684
354.563	693.2
354.961	686.8
355.36	683.8
355.759	681.8
356.158	673.4
356.557	683.6
356.956	675.4
357.355	669.4
357.754	692.6
358.153	690.4
358.552	715
358.951	690.8
359.35	693.2
359.75	684.8
360.149	677.2
360.527	677.2
360.926	669.4
361.326	686.2
361.726	688
362.125	672.6
362.525	698.2
362.925	680.6
363.325	688
363.724	682.4
364.124	678.4
364.524	678.4
364.924	687.2
365.324	700.4
365.725	670.4
366.125	691.2
366.525	690.4
366.904	670.2
367.304	662
367.705	707.8
368.105	698.4
368.506	683.8
368.906	685.8
369.307	693.4
369.708	695.6
370.108	663.6
370.509	695.6
370.91	676.4
371.311	687.6
371.712	693.4
372.113	685.8
372.514	669.6
372.894	677.4
373.295	679.2
373.696	691.4
374.097	695.4
374.499	710
374.9	680.2
375.301	679.4
375.703	685.6
376.105	668.4
376.506	693.8
376.908	692.6
377.309	686.4
377.711	685.8
378.113	682.8
378.493	670.8
378.895	679.2
379.297	691.6
379.699	669.2
380.102	689.4
380.504	684.4
380.906	679
381.308	714.8
381.71	674.6
382.113	689.6
382.515	679.8
382.918	687.6
383.299	674.8
383.701	689
384.104	676
384.507	656.4
384.909	684.4
385.312	670.6
385.715	672
386.118	688.6
386.521	672
386.924	688
387.327	668.4
387.709	668.8
388.112	668.4
388.515	683.6
388.918	677.4
389.322	692.4
389.725	677.2
390.129	704.8
390.532	678.2
390.936	683.6
391.339	669
391.743	687.4
392.125	672.8
392.529	688.4
392.933	698
393.337	672.4
393.74	680
394.144	690.8
394.548	666.2
394.953	678.6
395.357	686.8
395.761	671.6
396.144	684
396.548	675.6
396.952	677.4
397.357	682.6
397.761	683.6
398.166	678.4
398.57	680
398.975	660.8
399.379	687.4
399.763	739.6
400.168	690.8
400.572	678.8
400.977	680
401.382	701.4
401.787	685.4
402.192	703.2
402.597	695.2
403.002	665.4
403.386	702.8
403.791	700.6
404.197	675.6
404.602	683.2
405.007	674.8
405.413	676.6
405.818	680.4
406.224	676.6
406.608	668.4
407.014	677
407.42	695
407.825	677.6
408.231	692.4
408.637	681.6
409.043	699
409.449	677.8
409.834	668.8
410.24	691.6
410.646	693.4
411.052	695.2
411.458	681.4
411.865	691
412.271	688.2
412.677	681.4
413.062	684.2
413.469	666
413.875	714.4
414.282	700
414.689	680.6
415.095	687.4
415.502	675.2
415.888	691.4
416.294	674.6
416.701	739.8
417.108	672.2
417.515	694.6
417.923	674.8
418.33	697.2
418.715	691.2
419.123	681.2
419.53	683.2
419.937	692.4
420.345	705.8
420.752	685
421.16	697.2
421.546	681.6
421.953	687.4
422.361	675.8
422.769	685
423.177	685.4
423.585	709
423.992	710.6
424.379	699
424.787	694.2
425.195	712.8
425.603	685.4
426.011	703
426.419	707.8
426.806	690.4
427.214	692
427.623	696.8
428.031	703
428.44	698.2
428.848	696
429.235	696.4
429.644	693.4
430.053	692.2
430.461	706.8
430.87	719.8
431.279	701.2
431.666	671.4
432.075	683.6
432.484	696.4
432.893	681.4
433.302	714.4
433.711	740.2
434.099	697.2
434.508	687.8
434.918	662.4
435.327	694.8
435.737	684.4
436.125	690.6
436.534	694
436.944	691
437.353	695.2
437.763	710.2
438.173	676.8
438.561	699.2
438.971	667.8
439.381	686.6
439.791	687
440.201	656.2
440.589	685.4
440.999	692
441.409	694.4
441.819	675.4
442.23	702.6
442.619	698.6
443.029	683.8
443.439	686.8
443.85	702.8
444.26	703
444.649	690.4
445.06	683.2
445.471	676.6
445.881	688.2
446.292	708.2
446.682	713.4
447.092	674.8
447.503	743.6
447.914	681.2
448.325	685.2
448.715	685.4
449.126	682.4
449.537	671.2
449.948	682.4
450.338	688.6
450.75	696.8
451.161	683.4
451.572	694
451.984	681.8
452.374	659
452.786	683.8
453.197	688.2
453.609	693.6
453.999	669.2
454.411	682.8
454.823	693
455.235	683.8
455.647	678.2
456.037	686.8
456.449	658.2
456.862	675.4
457.274	680.4
457.665	662.6
458.077	680.8
458.489	725
458.902	673.4
459.293	679
459.705	676.2
460.118	675.8
460.53	685.8
460.921	678.6
461.334	686.8
461.747	686.2
462.16	683.2
462.551	696.4
462.964	683.4
463.377	672.2
463.79	686
464.182	707.2
464.595	681
465.008	677.4
465.421	683.4
465.813	674
466.226	685
466.64	679.2
467.053	732.4
467.445	692.8
467.859	697.8
468.272	679.6
468.686	694.6
469.078	671.8
469.492	671.6
469.906	677.8
470.298	689
470.712	667
471.126	741.2
471.54	659.2
471.933	672.8
472.347	667.4
472.761	676.8
473.175	670.2
473.568	677.6
473.982	670.4
474.397	674.2
474.79	679.6
475.204	690
475.619	683.6
476.033	675.2
476.426	680.8
476.841	678.2
477.256	708.4
477.649	670.4
478.064	672.2
478.479	674.2
478.872	670.2
479.287	664.2
479.702	673.8
480.118	673.8
480.511	687.2
480.927	679.4
481.342	668.6
481.736	676.4
482.151	667.4
482.566	688.8
482.96	674
483.376	687.8
483.792	663
484.186	676.8
484.602	667.6
485.017	678
485.412	675.2
485.827	684
486.243	672.8
486.638	708.8
487.054	688.4
487.47	696.8
487.865	662
488.281	669
488.697	672.6
489.092	675
489.508	671.2
489.925	693.2
490.32	666.2
490.736	673
491.153	675
491.548	674.8
491.964	693.4
492.381	663.2
492.776	682.8
493.193	680
493.61	692
494.006	679.6
494.422	692.4
494.84	664.6
495.235	688.8
495.652	679.6
496.069	665.6
496.465	668.4
496.883	679
497.3	706
497.696	672.8
498.113	687
498.509	668
498.927	665.4
499.344	667.8
499.741	665.4
500.158	675.8
500.576	696.2
500.973	676.2
501.39	663.8
501.787	668.2
502.205	673
502.623	672.8
503.02	669.2
503.438	658.6
503.856	675.4
504.253	682.6
504.671	676.8
505.068	668.6
505.486	677.8
505.905	697
506.302	676.4
506.72	680.2
507.118	655
507.536	664.8
507.955	663.2
508.352	674
508.771	675
509.169	676.6
509.587	669.2
510.006	675.2
510.404	661
510.823	665.2
511.221	676
511.64	668.8
512.038	689.8
512.457	664.4
512.877	675.4
513.275	656.8
513.694	671.4
514.092	673.8
514.512	684
514.91	664.4
515.33	670
515.749	672
516.148	673.8
516.568	669
516.966	670.8
517.386	664.6
517.785	677.4
518.205	663.8
518.603	672.4
519.024	667.6
519.444	678.6
519.843	683.6
520.263	694.2
520.662	672
521.082	678.4
521.481	669.8
521.902	668.4
522.301	673.4
522.722	681.4
523.121	675
523.542	664.4
523.963	671.8
524.362	673.2
524.783	683.4
525.183	672.8
525.604	670.2
526.003	671.6
526.425	670.4
526.824	675.6
527.246	670.4
527.646	678
528.067	672.4
528.467	675.8
528.888	679.8
529.289	668.2
529.71	673.4
530.11	680
530.532	669.4
530.932	665.4
531.354	662.6
531.755	711.6
532.176	681.2
532.577	673.6
532.999	671.8
533.4	663
533.822	689.8
534.223	672.2
534.645	670.4
535.046	668
535.468	671.6
535.869	691.6
536.292	670.8
536.693	709
537.115	667.4
537.516	669
537.939	668.4
538.34	692.4
538.742	678.4
539.165	672.8
539.566	671.6
539.989	656.6
540.391	663.4
540.814	672.2
541.216	669.6
541.639	672
542.041	673.8
542.464	666.8
542.866	668
543.268	659.8
543.691	668.4
544.093	670.2
544.517	693.6
544.919	663.4
545.343	700.2
545.745	661.2
546.147	674.8
546.571	670.8
546.974	667.2
547.398	675
547.8	687.4
548.224	669.2
548.627	665.6
549.03	671.2
549.454	664
549.857	656
550.281	663.2
550.684	663.2
551.087	676.6
551.512	674.8
551.915	678.2
552.34	674.4
552.743	664
553.146	674.2
553.571	674.2
553.975	690.4
554.399	659.4
554.803	720.4
555.207	660.2
555.632	671.8
556.036	673
556.461	661.4
556.865	678.2
557.268	668.8
557.694	659.4
558.098	674.6
558.502	674.8
558.927	662.6
559.332	660.4
559.736	673.2
560.162	673.4
560.566	666.4
560.992	672
561.396	672.8
561.801	665.8
562.227	668
562.631	662.8
563.036	663.2
563.462	670.8
563.867	669.4
564.272	656
564.698	663
565.103	649.8
565.508	688
565.935	671.4
566.34	671.6
566.745	680
567.172	670.2
567.577	687
567.982	682.6
568.409	660.6
568.815	657.2
569.22	660.8
569.626	680.2
570.053	653.4
570.459	658.6
570.865	661.8
571.292	664.2
571.698	668.4
572.104	661.2
572.531	664.2
572.937	690
573.343	667
573.75	658.8
574.177	667
574.583	680.6
574.99	669.4
575.396	669.8
575.824	661.4
576.231	672.6
576.637	660
577.065	691.4
577.472	669.2
577.879	664.4
578.286	696
578.714	652.6
579.121	663.2
579.528	670.2
579.935	677.8
580.364	663.8
580.771	653.2
581.178	659.2
581.585	672.8
582.014	677.8
582.421	660
582.829	666.2
583.236	676
583.644	655.4
584.073	661.4
584.481	673
584.889	662.8
585.296	676
585.726	659
586.134	655.2
586.542	664.2
586.95	687.2
587.358	654
587.787	668.2
588.196	650.8
588.604	661
589.012	663.2
589.421	660
589.851	666.4
590.259	666
590.668	659.4
591.076	707.4
591.485	655
591.894	670
592.324	681
592.733	681.6
593.142	657
593.551	661.2
593.96	661.2
594.369	662
594.8	654.2
595.209	668.2
595.618	644
596.028	667.8
596.437	656.8
596.847	670.4
597.256	670.2
597.687	672.8
598.097	668.8
598.507	646
598.917	665.6
599.327	671.2
599.736	671.6
600.146	672
600.556	666.4
600.988	685
601.398	654.6
601.808	674
602.219	651.6
602.629	675.2
603.039	674.8
603.45	695
603.86	669.2
604.271	687.8
604.703	661.4
605.114	661.8
605.525	673.6
605.935	671.6
606.346	686.8
606.757	672.6
607.168	664.6
607.579	665.8
607.99	681.2
608.402	666.4
608.813	670.2
609.224	662
609.636	653.4
610.047	667
610.48	666.2
610.892	678
611.303	675.8
611.715	671.6
612.127	654.6
612.539	657.4
612.95	669.4
613.362	650.2
613.774	647.4
614.186	648.6
614.599	651.4
615.011	674.2
615.423	662.4
615.835	661.2
616.248	646
616.66	669.2
617.073	658
617.485	658
617.898	673.8
618.311	669.8
618.723	670.6
619.136	685.6
619.549	673.4
619.962	691
620.375	654.6
620.788	672
621.201	662.4
621.614	669.4
622.028	652.2
622.441	663
622.854	675
623.268	648.2
623.681	670
624.095	662.4
624.509	671.8
624.922	669
625.336	653.6
625.728	665
626.142	681
626.556	681.4
626.97	670
627.384	660.4
627.799	673.4
628.213	678.2
628.627	661.6
629.041	665.2
629.456	664.8
629.87	666.2
630.285	680.2
630.699	674.8
631.093	664.2
631.507	667.4
631.922	667.8
632.337	676.4
632.752	653.4
633.167	659.8
633.582	651.2
633.997	659.6
634.412	658.8
634.806	663
635.221	659.6
635.637	672.2
636.052	657
636.468	662.8
636.883	682.6
637.299	669.8
637.715	644.8
638.109	669.6
638.525	654
638.941	676
639.357	673.6
639.773	680.6
640.189	656.2
640.584	663
641	663.4
641.416	655.6
641.832	661.4
642.249	662.8
642.665	663
643.06	662.4
643.477	670.8
643.894	651
644.31	659.2
644.727	664.2
645.123	659
645.54	656
645.957	661
646.374	677.2
646.77	662.4
647.187	691.2
647.604	659.8
648.021	646.6
648.439	657.2
648.835	664.8
649.252	668.2
649.67	658.8
650.088	658.6
650.484	668.6
650.902	676.2
651.32	674.8
651.738	662
652.134	676.8
652.552	679.8
652.971	669.8
653.389	663.4
653.786	678.2
654.204	681.4
654.622	649.8
655.019	672.6
655.438	658.6
655.857	664.2
656.275	670.6
656.673	653.8
657.091	752.8
657.51	661.8
657.908	675.8
658.327	689.2
658.746	651.6
659.144	667.4
659.563	677.2
659.982	668.8
660.38	660
660.8	661.4
661.219	667
661.617	665.6
662.037	668
662.457	680.2
662.855	649.6
663.275	695.2
663.695	663.8
664.094	665.8
664.514	662
664.934	660.6
665.333	663.2
665.753	648.6
666.152	649.6
666.572	656.8
666.993	673.6
667.392	647.6
667.812	657
668.212	658.2
668.632	674.2
669.053	659.8
669.453	665.6
669.874	660
670.273	665.6
670.694	646
671.116	671
671.515	672.4
671.937	668
672.337	666.4
672.758	657.4
673.158	668.4
673.58	652.4
673.98	675.4
674.402	673.8
674.824	657.4
675.224	658
675.646	650.6
676.047	650.2
676.469	662.4
676.869	663.8
677.292	655.2
677.693	652.2
678.115	656.8
678.516	670.8
678.939	671.8
679.34	655
679.762	673
680.164	671.2
680.586	656.6
680.988	667.2
681.411	690.4
681.812	662.4
682.236	649
682.637	656.2
683.061	656.2
683.462	660.6
683.864	657.6
684.288	666
684.69	650.8
685.114	671.4
685.516	673.4
685.94	645.8
686.342	669
686.766	650.6
687.168	655.6
687.571	680.8
687.995	665.8
688.398	639.2
688.822	658.8
689.225	678.8
689.628	677.4
690.052	660.8
690.456	677.2
690.88	662.8
691.284	661.2
691.687	674.4
692.112	656.6
692.515	645
692.919	657
693.344	669
693.747	657.8
694.173	657.4
694.577	676
694.98	652.4
695.406	653.8
695.81	658.8
696.214	661.2
696.64	664.6
697.044	667
697.448	674.8
697.874	659.4
698.279	661.6
698.684	653
699.11	646.4
699.514	652.2
699.919	657.8
700.324	656.6
700.75	654
701.156	660.4
701.561	670.6
701.987	662.4
702.393	673.4
702.798	683.8
703.203	666
703.63	658.2
704.036	663.6
704.442	670.8
704.847	647.6
705.274	651
705.68	662.6
706.086	672.8
706.492	647.2
706.92	660.6
707.326	680.2
707.732	654.6
708.139	655.6
708.545	645
708.973	647.4
709.38	669.2
709.786	646.2
710.193	676.4
710.6	664.6
711.028	655.6
711.435	658.2
711.842	664.8
712.249	655
712.656	660.4
713.064	667.8
713.492	655.6
713.9	662
714.307	660.4
714.715	664.6
715.123	668.4
715.53	656
715.938	663
716.367	673.2
716.775	666
717.184	655.4
717.592	657.6
718	674
718.408	705.6
718.816	701.4
719.225	665.8
719.633	654.4
720.042	652.8
720.472	661.4
720.881	683.6
721.29	662
721.699	651.8
722.108	668.6
722.517	657.6
722.926	657.8
723.335	673.6
723.744	664
724.154	670.8
724.563	660.6
724.973	666.4
725.382	654.4
725.792	661.2
726.202	651.2
726.612	679.8
727.022	660.4
727.432	658.8
779.813	652.6
780.223	703.2
780.634	657.8
781.044	654.4
781.454	660
781.865	671.2
782.276	649.4
782.686	669.2
783.097	657.2
783.508	651.4
783.919	663.8
784.33	674
784.741	668.8
785.152	656.2
785.563	648.2
785.974	655.2
786.386	665.8
786.776	657.8
787.188	656.8
787.599	651
788.011	670.4
788.423	665
788.835	650.2
789.247	649.6
789.659	654.6
790.071	648.8
790.483	706
790.874	647.6
791.286	667.2
791.699	662.8
792.111	659.8
792.524	662.4
792.937	654.4
793.349	645
793.741	653.8
794.154	655.6
794.567	684.8
794.98	661.2
795.393	652
795.785	678.8
796.198	656.6
796.612	664.6
797.026	649.2
797.439	644.6
797.831	653.2
798.245	647.8
798.659	651.2
799.073	656.6
799.487	654.4
799.88	657
800.294	659
800.708	661.4
801.123	657.8
801.516	669.6
801.93	643.6
802.345	653
802.76	657.6
803.153	676.6
803.568	675
803.983	663
804.377	658.8
804.792	644.4
805.207	642
805.601	660.4
806.016	701.2
806.432	649.2
806.826	697.4
807.242	681.8
807.658	658.2
808.052	654
808.468	661.4
808.884	655
809.279	653.6
809.695	670.6
810.111	680.4
810.506	655
810.922	675.8
811.339	654.2
811.734	671.2
812.151	653.8
812.546	654.4
812.963	650.8
813.38	661
813.776	656
814.193	677
814.589	655.2
815.006	657.8
815.402	644.4
815.82	650.2
816.237	653
816.633	666
817.051	644.8
817.448	668.8
817.866	645.8
818.262	685
818.68	653.4
819.077	650.6
819.495	654
819.892	701.4
820.311	648.2
820.708	648.8
821.127	653.6
821.524	666.6
821.943	656.6
822.34	676.8
822.759	663.4
823.157	655.2
823.576	667.8
823.974	669.8
824.393	776
824.791	659.4
825.189	649.4
825.609	656.8
826.007	656.2
826.427	644.8
826.826	651
827.246	663.4
827.644	646.6
828.043	671.6
828.463	643.4
828.862	664.4
829.261	664
829.682	644.2
830.081	654.2
830.502	645.6
830.901	665.8
831.301	644.8
831.722	641.8
832.121	652.8
832.521	644.2
832.943	651.6
833.342	655
833.742	648.4
834.164	654.4
834.564	646.8
834.965	657.6
835.386	656.8
835.787	662.8
836.188	655.8
836.588	648.6
837.01	662
837.411	644.6
837.812	663.6
838.213	663.4
838.636	652.6
839.037	739.8
839.438	672.2
839.84	657.6
840.263	659.4
840.664	671.2
841.066	665.6
841.468	660.2
841.891	660.6
842.293	663.4
842.695	660
843.098	666.8
843.5	654.6
843.902	657
844.326	661.6
844.729	661
845.131	659
845.534	658
845.937	671.8
846.34	670.8
846.764	646.4
847.167	658
847.571	644.6
847.974	654.8
848.377	655.2
848.781	705.6
849.184	679.2
849.588	655.4
849.992	639.6
850.396	653.2
850.821	687.8
851.225	665.2
851.63	659.2
852.034	672.8
852.438	649.8
852.843	791.2
853.247	662.2
853.652	652.4
854.057	675.2
854.462	663.4
854.867	661
855.272	693.4
855.677	664.8
856.082	644.2
856.487	643.8
856.893	658.2
857.298	654.4
857.704	650.4
858.11	661.2
858.516	654
858.922	653
859.328	670.6
859.734	658.4
860.14	665
860.525	667.2
860.931	647.6
861.338	643
861.745	669.2
862.151	659.8
862.558	655.6
862.965	652.4
863.372	656
863.779	651.4
864.186	670.8
864.572	650.8
864.98	676.4
865.387	695.6
865.795	644.8
866.203	662.8
866.61	646.6
867.018	668.8
867.405	667.6
867.813	655.8
868.221	651.8
868.63	654.2
869.038	669
869.425	698
869.834	652
870.243	645.8
870.652	646.2
871.039	649
871.448	650.8
871.857	657.6
872.266	661
872.654	649.4
873.064	645
873.473	663.6
873.883	652
874.271	658.2
874.681	669
875.091	637
875.48	655
875.89	683.2
876.3	649.8
876.689	647.2
877.1	649
877.51	654
877.9	680.6
878.31	660.6
878.721	689
879.111	655.6
879.522	650.6
879.933	647
880.323	647
880.734	646
881.125	656.4
881.536	650.6
881.948	649.6
882.338	653.6
882.75	664.4
883.141	647.8
883.553	655.8
883.944	684.2
884.356	667.2
884.769	656.8
885.16	654.2
885.573	651
885.964	651.2
886.377	655.8
886.768	638.2
887.181	657
887.573	639
887.987	665
888.378	671
888.792	661.6
889.184	714.2
889.598	646.6
889.99	660
890.383	650.4
890.797	649
891.19	665.8
891.604	645.6
891.997	645
892.411	651.6
892.805	640
893.198	649
893.613	632.6
894.006	650.6
894.421	636.8
894.815	648.6
895.209	654.8
895.624	699
896.018	679.2
896.412	649.2
896.828	651.8
897.222	655.4
897.617	652.8
898.033	679.6
898.427	656.6
898.822	657.6
899.239	643.8
899.634	644.4
900.029	673.8
900.424	646.2
900.841	638.4
901.236	663.6
901.632	662.8
902.027	717.4
902.445	656
902.841	647.4
903.237	657.4
903.633	664
904.05	670.2
904.447	652.4
904.843	664.8
905.24	648.6
905.636	639.2
906.033	652.8
906.451	666
906.848	650.4
907.246	642.8
907.643	663
908.04	655
908.438	667.8
908.835	665.6
909.254	656.6
909.652	661.4
910.05	647
910.448	639.6
910.846	645.4
911.244	642.4
911.643	671.8
912.041	652.2
912.44	669.2
912.839	645.2
913.237	649.2
913.636	639.2
914.035	653.6
914.434	647.6
914.834	662.8
915.233	667.6
915.633	648
916.032	652.8
916.432	645
916.832	668.8
917.232	652.8
917.632	641.4
918.032	656.6
918.432	657.4
918.833	651.6
919.233	653.4
919.634	636.2
920.035	664.8
920.436	644.6
920.837	655.4
921.238	641
921.639	637.6
922.019	658.6
922.42	652.6
922.822	655.8
923.224	643.6
923.625	644
924.027	654.6
924.429	675.6
924.81	652.2
925.212	658.8
925.615	650.4
926.017	641.2
926.42	662.2
926.801	664.4
927.204	651.6
927.607	656.8
928.01	675.8
928.413	646.6
928.795	637.6
929.199	645
929.602	652.6
930.006	656.6
930.388	648.6
930.792	660.4
931.196	652.8
931.579	692
931.983	650.4
932.388	708.4
932.771	649.8
933.176	634.4
933.58	657.8
933.964	655.2
934.369	646.2
934.774	662.8
935.158	656.8
935.563	649.8
935.947	649
936.353	659.6
936.759	651.8
937.143	657.6
937.549	651.2
937.934	665
938.34	678
938.746	652.4
939.131	649.6
939.538	648.8
939.923	661.4
940.33	647.8
940.716	653.4
941.123	660
941.508	660.6
941.916	674.2
942.302	650.6
942.709	639.8
943.096	642.6
943.503	658.2
943.89	653.8
944.298	638.4
944.685	685
945.072	653.4
945.48	661.2
945.867	646.6
946.276	647
946.663	670
947.051	672.6
947.46	664.6
947.848	656.2
948.257	646.4
948.645	651.2
949.033	641
949.443	642.2
949.831	695.6
950.22	636.8
950.63	657.6
951.018	685.8
951.407	654.4
951.796	651.2
952.207	657.6
952.596	662.4
952.985	648.8
953.375	698.4
953.786	652.8
954.176	645.4
954.566	663.2
954.956	636
955.367	649
955.758	685.4
956.148	643.4
956.539	669.2
956.929	640
957.341	645.2
957.732	639
958.123	666
958.515	649.2
958.906	661.4
959.297	652.2
959.689	652.6
960.102	641.4
960.494	659.6
960.886	653
961.278	651
961.67	679.8
962.062	694
962.455	650.8
962.847	648.6
963.24	644.2
963.633	649.2
964.026	638.8
964.419	651.4
964.812	659.4
965.206	657.4
965.599	658.4
965.993	648
966.386	654.4
966.78	660
967.174	659.6
967.569	642.2
967.963	647.6
968.357	644.2
968.752	645.8
969.146	640.2
969.541	641
969.936	654.2
970.331	652.6
970.705	650.8
971.1	645.2
971.496	662.4
971.892	641
972.287	657
972.683	645.6
973.079	648.2
973.454	659.8
973.85	650.2
974.247	655
974.643	677.4
975.04	646.2
975.415	657.2
975.812	639.4
976.209	665
976.607	638.4
976.982	660.2
977.38	667.6
977.778	650.6
978.175	649
978.552	656
978.95	648.2
979.348	660.8
979.725	698.2
980.123	644.6
980.522	654.4
980.899	646.2
981.298	647.8
981.697	651
982.075	645
982.474	649
982.852	648
983.251	653.6
983.651	643
984.029	656
984.429	652.4
984.808	641.4
985.208	656.8
985.609	645.2
985.987	634.8
986.388	646
986.768	659.4
987.168	648.4
987.548	661.6
987.949	662.6
988.329	661.8
988.731	634.6
989.111	639.8
989.491	649.6
989.893	650.4
990.273	656.8
990.676	642.2
991.057	631.8
991.459	652.8
991.84	650.4
992.221	635.8
992.624	673.4
993.006	657.6
993.388	655.6
993.791	655.4
994.173	654.6
994.576	690
994.959	636.4
995.341	647.2
995.724	645.8
996.128	648.8
996.511	650
996.894	649.4
997.298	649
997.681	656.6
998.065	644.6
998.448	640.4
998.854	664
999.237	646.2
999.621	658
1000.01	661.4
1000.39	647.6
1000.8	638.6
1001.18	653.6
1001.56	654.8
1001.95	649.6
1002.33	650.6
1002.72	635.8
1003.13	642.4
1003.51	651.4
1003.9	652
1004.28	671.2
1004.67	644.2
1005.06	651.6
1005.44	684.4
1005.83	638.4
1006.21	649
1006.6	646
1006.99	662.6
1007.37	660
1007.76	654
1060.12	650.8
1060.51	640.6
1060.89	649.8
1061.28	657.4
1061.67	664.4
1062.06	654.4
1062.45	654.2
1062.83	641.6
1063.22	659.2
1063.61	697.6
1064	654.6
1064.39	650
1064.78	648.4
1065.14	659.8
1065.53	645
1065.92	657
1066.31	637.6
1066.7	650.2
1067.09	669.4
1067.46	661.2
1067.85	651.8
1068.24	643.6
1068.63	666
1069.02	641.8
1069.39	651.6
1069.78	640.2
1070.17	644.2
1070.57	644.4
1070.93	651.2
1071.33	635.4
1071.72	651
1072.11	648
1072.48	647
1072.87	643.4
1073.26	649
1073.64	633.8
1074.03	638.8
1074.4	644.6
1074.79	642.2
1075.19	648.6
1075.56	651.2
1075.95	646.6
1076.34	645.6
1076.72	649.8
1077.11	657.4
1077.48	662.4
1077.88	645.4
1078.25	644.8
1078.64	658.4
1079.02	653.2
1079.41	652.6
1079.78	636
1080.18	641.8
1080.55	728.2
1080.95	640
1081.32	646.4
1081.72	650.6
1082.09	644.8
1082.49	646.2
1082.86	652
1083.24	641.6
1083.63	638.8
1084.01	648
1084.38	645.8
1084.78	640.6
1085.16	653
1085.55	667.6
1085.93	661
1086.31	641.4
1086.7	682
1087.08	650.8
1087.46	652.8
1087.83	635
1088.23	655.4
1088.61	648
1088.99	646.8
1089.36	649.8
1089.76	651.4
1090.14	648.8
1090.52	648.6
1090.9	637.2
1091.27	649.4
1091.67	678.4
1092.05	656
1092.43	642
1092.81	663.6
1093.19	655
1093.57	635
1093.95	640.2
1094.35	665.2
1094.73	659.2
1095.11	646.4
1095.49	642.8
1095.87	643.8
1096.25	665.6
1096.63	647.4
1097.01	654
1097.39	656
1097.77	640.2
1098.15	655
1098.53	638.4
1098.91	640.8
1099.29	648
1099.68	664
1100.06	653.8
1100.44	649.6
1100.82	643
1101.18	652.4
1101.56	642.4
1101.95	641.6
1102.33	647.2
1102.71	650
1103.1	632.6
1103.48	637.6
1103.86	638.6
1104.22	655.4
1104.61	648.2
1104.99	649
1105.38	640.2
1105.76	647
1106.12	637
1106.51	690
1106.89	670.2
1107.26	654.2
1107.64	662.2
1108.03	639.6
1108.41	646.4
1108.78	647.6
1109.16	654.4
1109.55	671.2
1109.91	637.2
1110.3	632.8
1110.69	656.4
1111.05	647
1111.44	648.8
1111.8	645.8
1112.19	654.2
1112.58	653.4
1112.94	648.8
1113.33	641.2
1113.7	638.6
1114.09	643
1114.45	645.4
1114.84	645.6
1115.21	657.8
1115.6	642.6
1115.96	653.4
1116.35	650.4
1116.72	643
1117.11	658.6
1117.48	647.2
1117.85	643.2
1118.24	662.8
1118.6	652.2
1118.99	643.4
1119.36	642.6
1119.73	649.2
1120.12	651.4
1120.49	638.2
1120.86	658.2
1121.25	641.6
1121.62	644.2
1121.99	641.2
1122.38	654
1122.76	647.6
1123.13	645.4
1123.5	651.2
1123.89	658.4
1124.26	637.6
1124.63	646.6
1125	647.8
1125.4	634.4
1125.77	632.6
1126.14	628.2
1126.51	648
1126.88	646.8
1127.26	641
1127.63	633.4
1128.02	635.4
1128.4	638
1128.77	654.4
1129.14	645.8
1129.52	650.2
1129.89	653.8
1130.26	644.6
1130.64	642.6
1131.01	647.6
