#lambda/nm	C1
208.295	541.8
208.67	491.6
209.045	449.2
209.419	455
209.794	682
210.169	675.2
210.544	807.8
210.919	685.2
211.295	671.6
211.67	683.4
212.045	694.2
212.421	689.8
212.796	723.6
213.172	686.4
213.547	674.4
213.923	686
214.299	684.4
214.675	691.2
215.051	705.4
215.427	694.2
215.803	715.4
216.179	698.4
216.555	674.6
216.932	695.2
217.308	681.4
217.684	688.8
218.061	687.8
218.438	683.8
218.814	691.8
219.191	687
219.568	682.6
219.945	687.4
220.322	693.2
220.699	690.2
221.076	696.8
221.453	690.2
221.83	678.6
222.208	688.8
222.585	688
222.962	698.6
223.34	687.4
223.717	692.4
224.095	680.4
224.473	689.4
224.851	699.6
225.229	673.4
225.607	696.6
225.985	675
226.363	683.4
226.741	681.2
227.119	692.4
227.497	702
227.876	677.4
228.254	696
228.633	692.2
229.011	690
229.39	688.2
229.769	691.8
230.148	698.2
230.527	710.6
230.905	691
231.284	689.6
231.664	685.6
232.043	696.6
232.422	696.8
232.801	682
233.181	690.6
233.56	682.2
233.94	695.2
234.319	679.6
234.699	682
235.079	733.8
235.458	734.2
235.838	716.4
236.218	675.6
236.598	679.2
236.978	682.6
237.358	667.6
237.738	681.2
238.119	692.8
238.499	678
238.88	685.8
239.26	700.4
239.641	672.4
240.021	683.4
240.402	685.4
240.783	672.2
241.163	682
241.544	691.8
241.925	683
242.306	696.6
242.687	679.6
243.069	692.6
243.45	696.2
243.831	684
244.212	683
244.594	727.4
244.975	693.2
245.357	681.4
245.739	678.4
246.12	693.2
246.502	705.2
246.884	692.8
247.266	682.8
247.648	687.6
248.03	704.4
248.412	688
248.794	699.8
249.176	677.2
249.559	695.4
249.941	677.2
250.323	678.8
250.706	684.6
251.089	692.6
251.471	688.6
251.854	686.4
252.237	685.2
252.62	696.8
253.002	692.8
253.385	684.8
253.769	707.2
254.152	685.6
254.535	698
254.918	685.2
255.301	690.4
255.685	676.4
256.068	672.2
256.452	717.2
256.835	700
257.219	695.8
257.603	698
257.986	680.8
258.37	687.8
258.754	676
259.138	684.6
259.522	698.8
259.906	682.4
260.29	690
260.675	683.4
261.059	694.6
261.443	682.2
261.828	701.4
262.212	686
262.597	667.8
262.981	683.8
263.366	698.8
263.751	695.8
264.136	682.6
264.521	679.2
264.906	682.4
265.291	695.6
265.676	686.6
266.061	690.4
266.446	721.6
266.831	693
267.217	715.4
267.602	694.6
267.987	687
268.373	680.8
268.759	705.6
269.144	694.2
269.53	684
269.916	675.6
270.302	689.6
270.688	702.8
271.074	694.8
271.46	701.2
271.846	723
272.232	686
272.618	676.2
273.004	685.6
273.391	707.6
273.777	703.6
274.164	693.8
274.55	702.8
274.937	692.6
275.324	684
275.71	687.2
276.097	692.8
276.484	683.6
276.871	688.8
277.258	698.4
277.645	665.4
278.032	685.4
278.419	683.8
278.807	687
279.194	668.4
279.581	678.6
279.969	684
280.356	684.4
280.744	699.2
281.131	713
281.519	697.4
281.907	684.6
282.295	686
282.682	705.4
283.07	693
283.458	684.8
283.846	698.2
284.235	708.4
284.623	697.8
285.011	680.8
285.399	687.8
285.788	685.4
286.176	669.8
286.565	712.2
286.953	677.6
287.342	682.2
287.731	686.2
288.119	681.2
288.508	691.4
288.897	692
289.286	682.4
289.675	697
290.064	706.4
290.453	689
290.821	694.6
291.21	697
291.599	687
291.989	688
292.378	693
292.768	711.4
293.157	690.4
293.547	697
293.936	687.4
294.326	679.4
294.716	692
295.106	677
295.496	699.4
295.886	702.4
296.276	687.6
296.666	677
297.056	691.4
297.446	678.2
297.836	703.2
298.227	676.2
298.617	691.6
299.008	703.8
299.398	690.2
299.789	689.2
300.179	698.4
300.57	701.8
300.961	691.6
301.352	683.6
301.742	696.4
302.133	690
302.524	683.8
302.915	700.4
303.307	682.8
303.698	707
304.089	695.8
304.48	690.2
304.872	698.6
305.263	694.4
305.655	688.6
306.046	692.6
306.438	703
306.829	690
307.221	710.4
307.613	703.2
308.005	698.8
308.397	705.8
308.789	710.8
309.181	724
309.573	709.2
309.965	704.6
310.357	689
310.749	707
311.142	672.4
311.534	678.4
311.926	703.6
312.319	698.4
312.711	682.2
313.104	701.6
313.497	690.8
313.889	736.4
314.282	708
314.675	721.6
315.068	697
315.461	707
315.854	725
316.247	700.2
316.64	689
317.033	698.6
317.405	696.8
317.798	693.4
318.192	689.6
318.585	678.4
318.979	694.4
319.372	682.6
319.766	691.8
320.16	709.2
320.553	715.2
320.947	717.6
321.341	684.6
321.735	694.2
322.129	684.4
322.523	716.8
322.917	686.8
323.311	709.6
323.705	695.4
324.099	688
324.494	707.4
324.888	701.4
325.282	694
325.677	702
326.071	708
326.466	707.2
326.861	692.2
327.255	706
327.65	718.2
328.045	711
328.44	693.8
328.835	693
329.23	678.8
329.625	728.6
330.02	697.8
330.415	709.4
330.81	689.8
331.206	694.2
331.601	686.2
331.996	701
332.37	712.6
332.766	676.6
333.161	722.4
333.557	695.8
333.953	696.2
334.348	1023.4
334.744	689
335.14	682.6
335.536	692.4
335.932	709.6
336.328	687.4
336.724	701.8
337.12	693.2
337.516	685.2
337.913	698
338.309	707.2
338.705	692.4
339.102	699.2
339.498	694.2
339.895	717.4
340.291	681.8
340.688	700
341.085	686
341.481	693.4
341.878	682.2
342.275	704.2
342.672	677.2
343.069	675.4
343.466	679.2
343.842	694.4
344.239	683.2
344.636	687.6
345.033	670.8
345.431	681.8
345.828	688.4
346.225	681.2
346.623	723.4
347.02	697.2
347.418	694.8
347.816	702
348.213	685.8
348.611	700.2
349.009	686
349.407	705.6
349.805	678.8
350.203	682.4
350.601	703
350.999	681.2
351.397	759.4
351.795	697.2
352.193	702
352.57	701
352.969	713.6
353.367	676.4
353.766	680
354.164	695.6
354.563	699.2
354.961	688.4
355.36	691.6
355.759	691.2
356.158	675.8
356.557	683
356.956	674.6
357.355	674.6
357.754	694.2
358.153	700.4
358.552	711.2
358.951	685
359.35	698.6
359.75	683.2
360.149	675.6
360.527	676.2
360.926	672.4
361.326	687.8
361.726	682
362.125	674
362.525	697
362.925	677.6
363.325	686.8
363.724	689.4
364.124	681.4
364.524	678.4
364.924	682.6
365.324	706.4
365.725	664.2
366.125	690.6
366.525	691.4
366.904	676
367.304	666.4
367.705	708
368.105	701
368.506	680.2
368.906	680.4
369.307	684.4
369.708	696
370.108	675.4
370.509	695.4
370.91	680.4
371.311	685.2
371.712	690.2
372.113	680.2
372.514	674.8
372.894	674.6
373.295	679.4
373.696	694.8
374.097	690.8
374.499	715.2
374.9	683.4
375.301	678.2
375.703	684.2
376.105	661.4
376.506	681.4
376.908	685.2
377.309	681
377.711	681.6
378.113	675
378.493	684
378.895	685.8
379.297	693.6
379.699	664
380.102	684.6
380.504	676.4
380.906	674.2
381.308	705.6
381.71	674
382.113	689.6
382.515	680.4
382.918	679
383.299	684.4
383.701	687.6
384.104	691.6
384.507	664.4
384.909	690.4
385.312	665.6
385.715	673.4
386.118	681.6
386.521	665
386.924	702.4
387.327	671.4
387.709	659.2
388.112	667.4
388.515	677
388.918	688.2
389.322	682
389.725	666.8
390.129	705
390.532	684.4
390.936	683.4
391.339	671.6
391.743	688.8
392.125	677.6
392.529	697.8
392.933	702.2
393.337	680.4
393.74	676.6
394.144	684.2
394.548	680.2
394.953	680.4
395.357	693.8
395.761	678.6
396.144	683.8
396.548	683
396.952	677.8
397.357	677.6
397.761	670.8
398.166	669.4
398.57	680
398.975	673.6
399.379	689.2
399.763	732.8
400.168	692.4
400.572	682
400.977	674.2
401.382	708
401.787	688.2
402.192	701.4
402.597	694.4
403.002	672
403.386	699.2
403.791	706.8
404.197	678.6
404.602	683.2
405.007	675.6
405.413	679.2
405.818	692.2
406.224	688.6
406.608	679.2
407.014	665.4
407.42	703.8
407.825	673.6
408.231	686
408.637	680.4
409.043	697.6
409.449	679
409.834	678.4
410.24	682.8
410.646	696.8
411.052	689.4
411.458	696.4
411.865	694.8
412.271	686.4
412.677	685
413.062	692.4
413.469	679.4
413.875	713.8
414.282	705
414.689	690.2
415.095	685.6
415.502	673.8
415.888	685
416.294	670.4
416.701	732.8
417.108	678.4
417.515	695.4
417.923	687
418.33	704.6
418.715	700.6
419.123	668.2
419.53	688.2
419.937	679.8
420.345	695.6
420.752	675.4
421.16	707.8
421.546	682.2
421.953	700.6
422.361	675.2
422.769	675.8
423.177	671.4
423.585	714.2
423.992	719.2
424.379	698.4
424.787	698.8
425.195	705.4
425.603	689.8
426.011	698.6
426.419	690.8
426.806	694.8
427.214	690.4
427.623	699.4
428.031	701.8
428.44	698.6
428.848	699.4
429.235	699
429.644	687.6
430.053	682.4
430.461	702.8
430.87	712.4
431.279	710.2
431.666	682.6
432.075	686.2
432.484	698
432.893	689.4
433.302	718.6
433.711	739.6
434.099	681.2
434.508	687.6
434.918	678.4
435.327	697
435.737	692.2
436.125	686.2
436.534	689.4
436.944	687.6
437.353	697.2
437.763	709.8
438.173	675.8
438.561	696.4
438.971	669.4
439.381	685
439.791	684.2
440.201	665.6
440.589	688
440.999	688.4
441.409	690
441.819	665.8
442.23	696.2
442.619	691.2
443.029	685
443.439	686.6
443.85	702
444.26	701.4
444.649	696.6
445.06	681.4
445.471	677.6
445.881	684.4
446.292	693.8
446.682	698.2
447.092	667.6
447.503	730.8
447.914	685.4
448.325	671.8
448.715	679.6
449.126	671
449.537	662.8
449.948	678.4
450.338	676.2
450.75	686.2
451.161	686.2
451.572	688.8
451.984	675
452.374	666
452.786	674.6
453.197	680
453.609	689
453.999	663.8
454.411	671.2
454.823	692.8
455.235	684
455.647	679.2
456.037	689
456.449	659.6
456.862	686.4
457.274	687.8
457.665	669
458.077	682.2
458.489	725.4
458.902	679
459.293	673.4
459.705	684.2
460.118	673.8
460.53	684.2
460.921	679
461.334	685
461.747	686.2
462.16	691.6
462.551	698.4
462.964	684
463.377	664
463.79	677.6
464.182	699.2
464.595	668
465.008	681.8
465.421	686.6
465.813	675.8
466.226	676.2
466.64	676.2
467.053	732.8
467.445	691.8
467.859	698.8
468.272	673.6
468.686	697.2
469.078	682.8
469.492	664.2
469.906	683.6
470.298	689.6
470.712	679
471.126	743.2
471.54	661.6
471.933	665.4
472.347	679.2
472.761	672.6
473.175	668
473.568	672.6
473.982	664.6
474.397	677.2
474.79	677.4
475.204	682.4
475.619	681
476.033	686.8
476.426	676.6
476.841	672.2
477.256	705
477.649	675.4
478.064	669.6
478.479	672
478.872	672.2
479.287	651.4
479.702	672
480.118	669.2
480.511	674.6
480.927	674.4
481.342	667.4
481.736	684
482.151	664
482.566	686.8
482.96	674
483.376	690.8
483.792	668
484.186	680.8
484.602	680.4
485.017	680.2
485.412	676.4
485.827	682
486.243	669.4
486.638	705.8
487.054	677.2
487.47	685.8
487.865	666.2
488.281	669.4
488.697	668.4
489.092	670.6
489.508	663
489.925	684.4
490.32	660.6
490.736	668.6
491.153	675
491.548	679.2
491.964	684
492.381	654.6
492.776	680.2
493.193	673.8
493.61	691.2
494.006	675.6
494.422	681.6
494.84	666.8
495.235	690.8
495.652	682.4
496.069	672
496.465	666.4
496.883	678.2
497.3	710.4
497.696	675.2
498.113	681
498.509	655.4
498.927	655.6
499.344	671.6
499.741	649.8
500.158	677
500.576	684.6
500.973	668.4
501.39	660.6
501.787	661
502.205	672
502.623	675.6
503.02	656.8
503.438	655.6
503.856	671.8
504.253	675.2
504.671	673.6
505.068	663.2
505.486	667.6
505.905	702
506.302	674
506.72	682.4
507.118	659.6
507.536	678
507.955	668
508.352	673.6
508.771	681.2
509.169	682.4
509.587	657.6
510.006	664.8
510.404	650.4
510.823	668.8
511.221	671
511.64	662.8
512.038	692
512.457	672
512.877	679.8
513.275	666.8
513.694	673.8
514.092	672.8
514.512	682.2
514.91	674.2
515.33	664.8
515.749	674.6
516.148	667.8
516.568	680.8
516.966	673.8
517.386	669.8
517.785	681.8
518.205	668
518.603	668.2
519.024	667
519.444	678.2
519.843	680
520.263	688.8
520.662	676.6
521.082	665.8
521.481	669.4
521.902	675.4
522.301	664.4
522.722	663.2
523.121	663.6
523.542	665.6
523.963	669.2
524.362	674
524.783	675.4
525.183	664.4
525.604	676.4
526.003	661.6
526.425	668.8
526.824	683.8
527.246	681.6
527.646	687
528.067	667.2
528.467	677.2
528.888	678.8
529.289	669.6
529.71	676
530.11	669.2
530.532	671.4
530.932	657.4
531.354	668.8
531.755	711.4
532.176	684.8
532.577	678.8
532.999	672.8
533.4	665
533.822	682.8
534.223	669
534.645	662.6
535.046	666.4
535.468	683.6
535.869	682.6
536.292	665.8
536.693	705.2
537.115	674.2
537.516	666.8
537.939	661.6
538.34	699.8
538.742	691.4
539.165	680.8
539.566	669.8
539.989	657.8
540.391	661.2
540.814	662.6
541.216	682.2
541.639	667.8
542.041	680.6
542.464	662.4
542.866	663.2
543.268	658.2
543.691	669
544.093	673.6
544.517	696.8
544.919	667
545.343	704
545.745	667.8
546.147	675.2
546.571	668
546.974	670
547.398	675.2
547.8	681.4
548.224	670.6
548.627	659.4
549.03	684.2
549.454	659.6
549.857	653.6
550.281	665.4
550.684	666.6
551.087	679.2
551.512	660.6
551.915	672.6
552.34	671
552.743	654.4
553.146	662.4
553.571	668.8
553.975	688.2
554.399	653.6
554.803	718.4
555.207	660.6
555.632	664.2
556.036	672.4
556.461	652.4
556.865	662.6
557.268	668
557.694	665.6
558.098	675.4
558.502	677
558.927	660.8
559.332	666.4
559.736	668.8
560.162	679.2
560.566	666.8
560.992	680
561.396	667.2
561.801	665.2
562.227	668.8
562.631	662
563.036	664.2
563.462	673.2
563.867	663.8
564.272	653.2
564.698	677.6
565.103	661
565.508	687.4
565.935	665.6
566.34	667.8
566.745	681.6
567.172	666.4
567.577	685.2
567.982	686.6
568.409	675.2
568.815	671
569.22	666.4
569.626	676.6
570.053	656.8
570.459	658.6
570.865	677.4
571.292	681.2
571.698	673.8
572.104	655.6
572.531	666.2
572.937	669.2
573.343	668
573.75	671.2
574.177	674.8
574.583	668.8
574.99	660.6
575.396	664.6
575.824	669
576.231	677.8
576.637	667
577.065	688.8
577.472	665.6
577.879	668.2
578.286	679.4
578.714	664
579.121	670
579.528	675.4
579.935	680
580.364	670.8
580.771	650.4
581.178	652.2
581.585	675.4
582.014	673.6
582.421	670.8
582.829	660
583.236	676.6
583.644	662
584.073	664.8
584.481	662.6
584.889	663.4
585.296	668.8
585.726	667.8
586.134	653
586.542	661.4
586.95	685.8
587.358	654.6
587.787	668
588.196	647.2
588.604	653.8
589.012	661.6
589.421	659.4
589.851	656.4
590.259	668.4
590.668	671.2
591.076	707
591.485	654.6
591.894	666
592.324	684.6
592.733	675.8
593.142	653.2
593.551	656.6
593.96	666.4
594.369	652.8
594.8	660
595.209	661
595.618	646.4
596.028	653.8
596.437	658.8
596.847	664.8
597.256	665.8
597.687	668.4
598.097	663
598.507	657.2
598.917	680.4
599.327	671.6
599.736	674
600.146	669.6
600.556	663.6
600.988	680.8
601.398	657.4
601.808	679.8
602.219	649.4
602.629	659
603.039	662.8
603.45	695.4
603.86	657
604.271	680.4
604.703	665.6
605.114	660.6
605.525	665.6
605.935	676.2
606.346	687.4
606.757	666.8
607.168	659.8
607.579	656.6
607.99	679.6
608.402	667.6
608.813	680.6
609.224	660
609.636	652
610.047	661.8
610.48	668.6
610.892	668.8
611.303	681.8
611.715	666.8
612.127	662.6
612.539	658
612.95	664.8
613.362	650.2
613.774	661
614.186	654.6
614.599	659
615.011	671.4
615.423	667
615.835	652.8
616.248	654.8
616.66	680.4
617.073	651.6
617.485	665
617.898	669.2
618.311	668.4
618.723	666.6
619.136	703.2
619.549	684.6
619.962	687.6
620.375	663.6
620.788	671.4
621.201	652.6
621.614	678
622.028	657.8
622.441	669.8
622.854	684.4
623.268	643.8
623.681	679.8
624.095	665
624.509	667.2
624.922	682.2
625.336	652.4
625.728	665.2
626.142	675.2
626.556	681.6
626.97	667.8
627.384	656.8
627.799	661.2
628.213	675.4
628.627	655.4
629.041	659.8
629.456	666.8
629.87	661.6
630.285	673.6
630.699	676.8
631.093	671.4
631.507	674.4
631.922	661.2
632.337	679
632.752	659.4
633.167	666.4
633.582	665.4
633.997	656.2
634.412	650
634.806	668.4
635.221	652
635.637	685
636.052	651.6
636.468	662.8
636.883	689.8
637.299	661
637.715	645.2
638.109	657.6
638.525	651.2
638.941	678.8
639.357	661.4
639.773	682
640.189	661.4
640.584	665
641	664.2
641.416	647.6
641.832	658.6
642.249	666
642.665	656.6
643.06	670.4
643.477	671.4
643.894	646.2
644.31	673.6
644.727	665.6
645.123	662.8
645.54	656.8
645.957	672
646.374	678
646.77	663.4
647.187	697.8
647.604	661
648.021	644.8
648.439	657.8
648.835	669
649.252	661.6
649.67	655.8
650.088	667.4
650.484	669.8
650.902	672.4
651.32	670.8
651.738	650.2
652.134	672.6
652.552	676.4
652.971	674.8
653.389	657.2
653.786	676.8
654.204	687.6
654.622	651.6
655.019	662.2
655.438	671.4
655.857	663.8
656.275	660.8
656.673	657.2
657.091	737.8
657.51	651.6
657.908	668.2
658.327	676.2
658.746	647.6
659.144	666
659.563	676.2
659.982	661.4
660.38	659.4
660.8	662.2
661.219	679.2
661.617	667
662.037	669.2
662.457	676.6
662.855	654.6
663.275	691.2
663.695	663.2
664.094	653.8
664.514	663.6
664.934	653.6
665.333	672
665.753	652.2
666.152	654.4
666.572	658.2
666.993	678.6
667.392	658.6
667.812	660.6
668.212	663.2
668.632	685.4
669.053	663.2
669.453	667.8
669.874	663.8
670.273	670.2
670.694	651.2
671.116	680.2
671.515	677
671.937	662.8
672.337	663.8
672.758	659.6
673.158	676.2
673.58	655.6
673.98	661.8
674.402	677
674.824	655.4
675.224	661
675.646	658.8
676.047	660
676.469	667.4
676.869	671.6
677.292	668.4
677.693	651.6
678.115	658
678.516	666.2
678.939	675.4
679.34	669
679.762	680
680.164	665.2
680.586	660.8
680.988	674.2
681.411	685.6
681.812	667.2
682.236	661.4
682.637	648.2
683.061	649.2
683.462	665.8
683.864	665.2
684.288	670.2
684.69	649.2
685.114	675.6
685.516	672.8
685.94	659.8
686.342	667.4
686.766	654.2
687.168	658.8
687.571	682
687.995	659
688.398	644.6
688.822	646
689.225	667.4
689.628	678
690.052	658.8
690.456	663.8
690.88	655.4
691.284	646.2
691.687	668
692.112	649.8
692.515	645.2
692.919	662
693.344	661.2
693.747	658.2
694.173	650.6
694.577	677.2
694.98	662.4
695.406	657.8
695.81	670.4
696.214	660.4
696.64	655
697.044	661.4
697.448	673
697.874	658
698.279	657.6
698.684	651.4
699.11	655.6
699.514	654.8
699.919	651.8
700.324	649.8
700.75	657.4
701.156	658.2
701.561	677.6
701.987	661.8
702.393	669.4
702.798	670.8
703.203	665.4
703.63	658.4
704.036	657.8
704.442	665.8
704.847	648.2
705.274	657.4
705.68	664.8
706.086	678.6
706.492	656
706.92	657
707.326	673.2
707.732	661.2
708.139	646.2
708.545	659.6
708.973	647.6
709.38	666
709.786	635.8
710.193	677.6
710.6	662
711.028	652.4
711.435	657.6
711.842	661.8
712.249	657.8
712.656	662.6
713.064	673
713.492	654.4
713.9	662.6
714.307	654.2
714.715	666.6
715.123	661.4
715.53	661
715.938	674.6
716.367	669
716.775	646.2
717.184	648.6
717.592	656
718	678.4
718.408	696.6
718.816	707
719.225	666.4
719.633	662.2
720.042	649.4
720.472	659.8
720.881	685.2
721.29	661.4
721.699	653.6
722.108	669
722.517	657.6
722.926	657.8
723.335	666.8
723.744	655.6
724.154	665
724.563	665.2
724.973	664.4
725.382	662.2
725.792	653.8
726.202	653.4
726.612	688.4
727.022	668.2
727.432	656.2
779.813	651.8
780.223	711.2
780.634	655.6
781.044	651.4
781.454	650
781.865	680.4
782.276	645.8
782.686	667.2
783.097	659.8
783.508	657.4
783.919	662.4
784.33	671.2
784.741	669.2
785.152	650.6
785.563	642.2
785.974	655.2
786.386	672.6
786.776	652.8
787.188	649
787.599	646.8
788.011	667.2
788.423	662.8
788.835	661.8
789.247	643.8
789.659	655.4
790.071	655.6
790.483	693.2
790.874	652.4
791.286	675.4
791.699	659.6
792.111	672
792.524	661.6
792.937	663.2
793.349	654.4
793.741	645
794.154	651.2
794.567	673.2
794.98	648
795.393	646.2
795.785	677.8
796.198	642.6
796.612	669.8
797.026	654
797.439	632
797.831	649.4
798.245	647.4
798.659	661
799.073	655.4
799.487	658.6
799.88	658.2
800.294	663.8
800.708	665.2
801.123	662
801.516	688.4
801.93	646.2
802.345	643.4
802.76	660.4
803.153	675.6
803.568	670.4
803.983	670
804.377	664.2
804.792	640.6
805.207	648
805.601	658
806.016	696.6
806.432	659
806.826	700.4
807.242	677.2
807.658	661
808.052	654
808.468	657.4
808.884	653.6
809.279	659
809.695	666.8
810.111	667.8
810.506	655.4
810.922	667.8
811.339	660.6
811.734	671
812.151	652
812.546	648.8
812.963	647.4
813.38	659.4
813.776	653.6
814.193	689
814.589	650.2
815.006	646
815.402	651.2
815.82	641.8
816.237	653.8
816.633	662.8
817.051	650.8
817.448	662.2
817.866	646.6
818.262	680.6
818.68	645.4
819.077	655.6
819.495	660.8
819.892	702.4
820.311	648.4
820.708	655
821.127	660.4
821.524	677.4
821.943	661.8
822.34	682.2
822.759	662.6
823.157	661.6
823.576	672.4
823.974	657.2
824.393	782.8
824.791	649.6
825.189	652.4
825.609	653.6
826.007	647.6
826.427	650.2
826.826	646.6
827.246	658.8
827.644	636.4
828.043	674.4
828.463	650.4
828.862	666
829.261	662.6
829.682	650.4
830.081	665.4
830.502	649.4
830.901	662.6
831.301	656.4
831.722	650
832.121	653
832.521	648
832.943	657.6
833.342	653.8
833.742	651.2
834.164	650
834.564	641
834.965	658.2
835.386	650.4
835.787	655.2
836.188	662.8
836.588	663.4
837.01	659.6
837.411	647.6
837.812	669.8
838.213	661.8
838.636	648.4
839.037	739.2
839.438	671.6
839.84	667.8
840.263	667
840.664	666.2
841.066	658
841.468	657.8
841.891	649.8
842.293	666.6
842.695	656
843.098	666.2
843.5	647.6
843.902	654.6
844.326	657.4
844.729	655.8
845.131	663.8
845.534	648.6
845.937	669.8
846.34	679.6
846.764	654.6
847.167	653.2
847.571	646.6
847.974	652
848.377	653.8
848.781	709.2
849.184	661.6
849.588	657.2
849.992	647.2
850.396	662.8
850.821	681
851.225	662.6
851.63	653.4
852.034	673.4
852.438	658.2
852.843	795
853.247	651.2
853.652	656
854.057	680.8
854.462	664.4
854.867	656.4
855.272	689.6
855.677	667.2
856.082	654
856.487	647.2
856.893	664.8
857.298	655.4
857.704	648.2
858.11	665.2
858.516	653.2
858.922	648.8
859.328	670.8
859.734	656.4
860.14	668
860.525	657.2
860.931	652.4
861.338	654.8
861.745	656.6
862.151	669.8
862.558	659.4
862.965	645.2
863.372	645.6
863.779	643.6
864.186	668.8
864.572	655.6
864.98	675.4
865.387	685.6
865.795	646.4
866.203	656.2
866.61	640.4
867.018	672.2
867.405	656.8
867.813	651.2
868.221	661.2
868.63	651.2
869.038	664.8
869.425	690.4
869.834	659.2
870.243	643.6
870.652	650.4
871.039	649.2
871.448	658
871.857	660.6
872.266	667
872.654	653.8
873.064	656.6
873.473	662.8
873.883	651
874.271	648.8
874.681	662.2
875.091	644.8
875.48	666.2
875.89	682.4
876.3	649.8
876.689	645
877.1	650.2
877.51	654.6
877.9	687.4
878.31	655
878.721	690.8
879.111	661.6
879.522	652.6
879.933	645.8
880.323	641.8
880.734	658
881.125	666.4
881.536	649.8
881.948	649.2
882.338	656.8
882.75	667.4
883.141	655.6
883.553	654.8
883.944	677.2
884.356	661
884.769	657
885.16	649.4
885.573	645.6
885.964	642.2
886.377	645.4
886.768	636
887.181	653.4
887.573	647.4
887.987	669.4
888.378	658.8
888.792	661
889.184	705.6
889.598	648.2
889.99	660
890.383	646
890.797	639.8
891.19	674
891.604	642.8
891.997	637.4
892.411	640.8
892.805	646
893.198	642.4
893.613	640.6
894.006	655.6
894.421	641.8
894.815	655
895.209	643.8
895.624	700.8
896.018	678
896.412	654.4
896.828	659.2
897.222	660
897.617	650
898.033	671.4
898.427	656.2
898.822	657.8
899.239	642.2
899.634	647.6
900.029	680.4
900.424	650.2
900.841	637.6
901.236	671.8
901.632	662.4
902.027	723
902.445	649.2
902.841	652.6
903.237	665.8
903.633	668.4
904.05	665.4
904.447	662.2
904.843	663.8
905.24	655
905.636	643.8
906.033	647.4
906.451	665.2
906.848	640.4
907.246	653
907.643	661.2
908.04	652.4
908.438	674.8
908.835	657
909.254	647.2
909.652	650.8
910.05	646.4
910.448	641.8
910.846	651.8
911.244	644
911.643	657.4
912.041	639.6
912.44	659.8
912.839	649.4
913.237	639.2
913.636	637.6
914.035	653.8
914.434	651.2
914.834	663.8
915.233	661.4
915.633	645.8
916.032	649
916.432	645
916.832	671.6
917.232	644.4
917.632	649.4
918.032	662.4
918.432	651.6
918.833	651.8
919.233	653.2
919.634	646
920.035	656.4
920.436	644.6
920.837	654
921.238	650.4
921.639	650
922.019	657.4
922.42	652
922.822	657.4
923.224	658.4
923.625	658.4
924.027	658.8
924.429	680
924.81	659.8
925.212	659.6
925.615	652
926.017	653.2
926.42	667.8
926.801	655
927.204	650.6
927.607	667.6
928.01	662.2
928.413	657.4
928.795	638.6
929.199	649.4
929.602	653
930.006	650.2
930.388	653.6
930.792	662.6
931.196	650
931.579	693
931.983	634.2
932.388	704.4
932.771	647
933.176	640.4
933.58	650.6
933.964	657.8
934.369	636.6
934.774	660.8
935.158	653.2
935.563	653
935.947	660
936.353	660.8
936.759	650.4
937.143	661.4
937.549	657.6
937.934	672.4
938.34	666.4
938.746	648
939.131	653.4
939.538	650.8
939.923	654.6
940.33	646.8
940.716	658
941.123	653.2
941.508	662.8
941.916	676.8
942.302	655.6
942.709	639.8
943.096	641.2
943.503	656.4
943.89	649.2
944.298	646.8
944.685	673.4
945.072	652.8
945.48	661.8
945.867	651.2
946.276	642
946.663	674.6
947.051	666.8
947.46	663.6
947.848	650.2
948.257	653.4
948.645	652
949.033	641.2
949.443	631.2
949.831	696.6
950.22	641.2
950.63	659
951.018	687.8
951.407	648
951.796	637.4
952.207	659
952.596	665.8
952.985	645.8
953.375	700.4
953.786	655.6
954.176	647
954.566	656.2
954.956	641.2
955.367	645
955.758	682
956.148	633.8
956.539	651.2
956.929	642.8
957.341	641
957.732	651.8
958.123	656.4
958.515	645.8
958.906	659.4
959.297	644.2
959.689	643.2
960.102	647.6
960.494	653.4
960.886	653
961.278	637.2
961.67	673.4
962.062	683.8
962.455	638.4
962.847	641
963.24	651.2
963.633	654.6
964.026	638
964.419	649
964.812	656
965.206	649.2
965.599	661.8
965.993	642.2
966.386	654.8
966.78	662
967.174	661
967.569	650.8
967.963	644.8
968.357	646.6
968.752	653.4
969.146	655.6
969.541	643.2
969.936	647
970.331	649.6
970.705	641.4
971.1	648.8
971.496	669.4
971.892	637
972.287	650.4
972.683	645.6
973.079	658.6
973.454	674
973.85	649
974.247	669
974.643	681.4
975.04	649
975.415	655.4
975.812	640.2
976.209	652
976.607	644.2
976.982	658
977.38	666.8
977.778	657.2
978.175	654.4
978.552	651.6
978.95	650.6
979.348	656.8
979.725	705.2
980.123	647.6
980.522	640.6
980.899	645.6
981.298	651.8
981.697	651
982.075	640.2
982.474	641
982.852	656.8
983.251	653.2
983.651	646.4
984.029	662.6
984.429	653
984.808	635.8
985.208	649.6
985.609	635.4
985.987	635.4
986.388	643.4
986.768	645.8
987.168	649.2
987.548	655.6
987.949	662.4
988.329	648.8
988.731	634.2
989.111	656.2
989.491	650.4
989.893	654.6
990.273	660
990.676	643.4
991.057	636.6
991.459	646.2
991.84	650.4
992.221	631.8
992.624	665.6
993.006	655.8
993.388	653.4
993.791	658.2
994.173	653
994.576	692.8
994.959	643.8
995.341	648.4
995.724	643.6
996.128	654
996.511	660
996.894	648.4
997.298	645.4
997.681	645.2
998.065	660
998.448	641
998.854	663.8
999.237	644.4
999.621	657.6
1000.01	665.8
1000.39	645
1000.8	657.6
1001.18	656.2
1001.56	652.2
1001.95	658
1002.33	650.2
1002.72	645.4
1003.13	648
1003.51	656
1003.9	651.6
1004.28	665.8
1004.67	650.6
1005.06	662.8
1005.44	689
1005.83	633.2
1006.21	650.2
1006.6	650.8
1006.99	660
1007.37	659.2
1007.76	649
1060.12	652.2
1060.51	636.8
1060.89	654.2
1061.28	659.4
1061.67	650.8
1062.06	651.8
1062.45	640.8
1062.83	640.4
1063.22	644
1063.61	688.4
1064	658.6
1064.39	646.2
1064.78	642
1065.14	659.8
1065.53	651
1065.92	648.8
1066.31	632.6
1066.7	652
1067.09	666.8
1067.46	657.2
1067.85	647.6
1068.24	639.2
1068.63	654.4
1069.02	637.2
1069.39	655.8
1069.78	653.8
1070.17	653.8
1070.57	635.6
1070.93	656.6
1071.33	644.4
1071.72	651.6
1072.11	648.8
1072.48	645.6
1072.87	647.2
1073.26	646.4
1073.64	641.2
1074.03	641.4
1074.4	642.8
1074.79	650
1075.19	658.4
1075.56	650.2
1075.95	654.6
1076.34	655.4
1076.72	647.2
1077.11	658.8
1077.48	666.6
1077.88	657.2
1078.25	650.6
1078.64	648.4
1079.02	665.8
1079.41	667.6
1079.78	644.8
1080.18	640.8
1080.55	724.4
1080.95	641.8
1081.32	639.2
1081.72	647.8
1082.09	652.6
1082.49	638.6
1082.86	647.4
1083.24	643.4
1083.63	642
1084.01	652.2
1084.38	656.4
1084.78	646.6
1085.16	655.2
1085.55	663
1085.93	673.8
1086.31	639.8
1086.7	680.8
1087.08	655.6
1087.46	658.4
1087.83	640.6
1088.23	654
1088.61	643.2
1088.99	650.6
1089.36	644
1089.76	654.2
1090.14	646.6
1090.52	646.4
1090.9	635
1091.27	662.2
1091.67	664.6
1092.05	645.8
1092.43	638.4
1092.81	655.2
1093.19	656.6
1093.57	641.6
1093.95	643
1094.35	667.2
1094.73	663.4
1095.11	643
1095.49	644.8
1095.87	637.8
1096.25	661
1096.63	656.4
1097.01	646.8
1097.39	651.8
1097.77	640.2
1098.15	644
1098.53	634.8
1098.91	645.4
1099.29	655.2
1099.68	676.4
1100.06	660.4
1100.44	642.8
1100.82	651.2
1101.18	656.6
1101.56	644.2
1101.95	648
1102.33	644.4
1102.71	649
1103.1	641
1103.48	635
1103.86	636.4
1104.22	648.8
1104.61	650.6
1104.99	643.4
1105.38	635.2
1105.76	647.4
1106.12	642.2
1106.51	683
1106.89	660.4
1107.26	654
1107.64	664.8
1108.03	642
1108.41	646.8
1108.78	647.6
1109.16	660.6
1109.55	656.6
1109.91	628.2
1110.3	629.4
1110.69	658.6
1111.05	641.2
1111.44	644.6
1111.8	643.2
1112.19	648.2
1112.58	657.6
1112.94	644.4
1113.33	644.6
1113.7	634.2
1114.09	638.8
1114.45	635
1114.84	647.4
1115.21	655
1115.6	644.6
1115.96	642.6
1116.35	656.4
1116.72	641.2
1117.11	657.8
1117.48	644
1117.85	647
1118.24	652.4
1118.6	653.8
1118.99	640.4
1119.36	651.6
1119.73	649
1120.12	651
1120.49	635
1120.86	650
1121.25	640
1121.62	638.8
1121.99	641.4
1122.38	664.8
1122.76	648.2
1123.13	649.6
1123.5	647.2
1123.89	658.4
1124.26	638
1124.63	648
1125	645.4
1125.4	641
1125.77	636.6
1126.14	634.2
1126.51	646
1126.88	643.6
1127.26	643.8
1127.63	635.4
1128.02	643.4
1128.4	646
1128.77	640.2
1129.14	651
1129.52	648.2
1129.89	654.2
1130.26	636.2
1130.64	637.4
1131.01	635
