#lambda/nm	C1
208.295	543.2
208.67	493
209.045	455.4
209.419	456.4
209.794	690.4
210.169	673
210.544	811.4
210.919	695.2
211.295	677.4
211.67	690.4
212.045	689.2
212.421	686
212.796	732
213.172	681.2
213.547	678.4
213.923	681.2
214.299	682.8
214.675	698.8
215.051	688.8
215.427	689.2
215.803	707.4
216.179	691.4
216.555	684.2
216.932	691
217.308	687.6
217.684	682.4
218.061	692.4
218.438	694.2
218.814	682.4
219.191	694.2
219.568	674.8
219.945	674.6
220.322	693
220.699	687.8
221.076	705.8
221.453	695
221.83	673.6
222.208	681.8
222.585	676
222.962	691.4
223.34	690
223.717	678.6
224.095	681.6
224.473	696.8
224.851	679.2
225.229	678
225.607	706.2
225.985	679
226.363	686
226.741	685.8
227.119	682.4
227.497	706.6
227.876	673.2
228.254	691
228.633	690.2
229.011	696.2
229.39	693.2
229.769	694
230.148	694.8
230.527	710.4
230.905	680
231.284	690.6
231.664	685.2
232.043	700
232.422	685
232.801	682.6
233.181	693.8
233.56	680
233.94	694.4
234.319	673.6
234.699	683.4
235.079	729.6
235.458	730
235.838	711
236.218	675.8
236.598	677.8
236.978	677.8
237.358	680
237.738	675.6
238.119	699.4
238.499	680.2
238.88	689.2
239.26	698.8
239.641	678.4
240.021	675
240.402	684.2
240.783	689.2
241.163	679.6
241.544	687.6
241.925	692.2
242.306	708.2
242.687	680
243.069	688.6
243.45	692.4
243.831	682.6
244.212	682.4
244.594	727.4
244.975	702.6
245.357	690
245.739	686.6
246.12	689.6
246.502	709.2
246.884	676.8
247.266	677.2
247.648	684.6
248.03	714.4
248.412	690.6
248.794	696.2
249.176	694.6
249.559	689.6
249.941	679.8
250.323	678.2
250.706	678.6
251.089	690
251.471	700.4
251.854	688.8
252.237	684.2
252.62	691.4
253.002	687.8
253.385	689.4
253.769	717.4
254.152	679.6
254.535	695.4
254.918	681.2
255.301	685.8
255.685	686.4
256.068	673.6
256.452	713
256.835	691.8
257.219	696.4
257.603	696
257.986	662.6
258.37	688
258.754	681.4
259.138	694
259.522	702.8
259.906	686.6
260.29	693
260.675	682.6
261.059	687.4
261.443	667.6
261.828	702.2
262.212	694.2
262.597	673.4
262.981	683
263.366	695
263.751	690.8
264.136	684.4
264.521	678.6
264.906	670.4
265.291	699
265.676	682.2
266.061	696.4
266.446	701.2
266.831	688.6
267.217	713.8
267.602	696.4
267.987	688.4
268.373	686.4
268.759	695.2
269.144	691.4
269.53	680.8
269.916	677.4
270.302	674.8
270.688	678.6
271.074	690.2
271.46	705.8
271.846	734.4
272.232	680.4
272.618	682.2
273.004	687.6
273.391	702.8
273.777	709.4
274.164	687.2
274.55	702.4
274.937	681.4
275.324	686.2
275.71	699.2
276.097	694.4
276.484	674.8
276.871	690.6
277.258	692.6
277.645	674.2
278.032	680.2
278.419	685.6
278.807	696.2
279.194	674.2
279.581	687.4
279.969	695.4
280.356	686.2
280.744	688.8
281.131	716
281.519	700.2
281.907	679.2
282.295	679.8
282.682	705
283.07	692
283.458	696.2
283.846	703.6
284.235	704.2
284.623	700.8
285.011	677
285.399	680.4
285.788	691.8
286.176	677.4
286.565	705.8
286.953	682.8
287.342	693
287.731	685.2
288.119	681.4
288.508	688.8
288.897	693.8
289.286	672.6
289.675	689.4
290.064	700.2
290.453	684.6
290.821	687.8
291.21	704.2
291.599	691.6
291.989	690
292.378	696.4
292.768	713
293.157	689.6
293.547	695.4
293.936	692
294.326	684
294.716	702.6
295.106	683.2
295.496	705.2
295.886	699.2
296.276	683
296.666	686
297.056	686.8
297.446	682.8
297.836	708.6
298.227	682.4
298.617	702.6
299.008	701.2
299.398	689.8
299.789	683.6
300.179	700.4
300.57	706.2
300.961	687.2
301.352	683.6
301.742	695.4
302.133	692.8
302.524	685.2
302.915	692.6
303.307	680.8
303.698	700.2
304.089	693.6
304.48	690.8
304.872	696.2
305.263	688.2
305.655	685.6
306.046	686.8
306.438	697.2
306.829	686
307.221	707.8
307.613	701.4
308.005	694
308.397	698.6
308.789	703.6
309.181	721.6
309.573	711.6
309.965	712.4
310.357	684.2
310.749	705
311.142	677.4
311.534	684
311.926	703.8
312.319	692.2
312.711	684.8
313.104	706.4
313.497	693.8
313.889	733.2
314.282	706.8
314.675	710.2
315.068	690.4
315.461	702
315.854	726.2
316.247	700.4
316.64	688.4
317.033	686
317.405	703.2
317.798	688.2
318.192	693.6
318.585	690.2
318.979	691.2
319.372	691
319.766	684.8
320.16	704.8
320.553	705.4
320.947	716.2
321.341	697.4
321.735	690.8
322.129	679.2
322.523	717.4
322.917	683.4
323.311	708.6
323.705	700.6
324.099	707
324.494	712.8
324.888	707.6
325.282	698
325.677	716.6
326.071	700.2
326.466	711.6
326.861	696.6
327.255	705.2
327.65	714
328.045	713.2
328.44	699.2
328.835	690.8
329.23	692.4
329.625	727
330.02	688.8
330.415	717.2
330.81	696.2
331.206	694.2
331.601	681.8
331.996	700.2
332.37	721.4
332.766	686
333.161	721.8
333.557	688.6
333.953	699.4
334.348	956.4
334.744	695.4
335.14	683.6
335.536	684.6
335.932	716
336.328	695.2
336.724	699.6
337.12	694.2
337.516	688.8
337.913	691.6
338.309	707.2
338.705	687.8
339.102	709
339.498	697.2
339.895	701.8
340.291	686.4
340.688	700
341.085	688.2
341.481	688.2
341.878	691.6
342.275	715
342.672	682
343.069	681.8
343.466	671.8
343.842	696
344.239	678.4
344.636	691.2
345.033	679
345.431	682
345.828	692.8
346.225	687
346.623	731.6
347.02	694.4
347.418	693.4
347.816	702.2
348.213	686.2
348.611	701.6
349.009	686
349.407	697
349.805	684.6
350.203	678.2
350.601	699.4
350.999	683.2
351.397	758
351.795	685.2
352.193	699.6
352.57	704
352.969	702.2
353.367	680.8
353.766	680
354.164	686.6
354.563	700.2
354.961	687
355.36	686.2
355.759	687.6
356.158	683.2
356.557	685.4
356.956	675
357.355	678
357.754	689.4
358.153	688.8
358.552	719.2
358.951	686.2
359.35	691.8
359.75	689.2
360.149	675.2
360.527	670.6
360.926	674.4
361.326	686
361.726	678.4
362.125	683
362.525	690.4
362.925	686.6
363.325	687.4
363.724	682.4
364.124	670.6
364.524	682.8
364.924	684.6
365.324	687.2
365.725	666.6
366.125	689.8
366.525	678.4
366.904	678.6
367.304	670.4
367.705	702.8
368.105	693.4
368.506	678.4
368.906	679.8
369.307	681.8
369.708	688
370.108	667
370.509	689.8
370.91	675.8
371.311	676.2
371.712	680.2
372.113	688.2
372.514	653
372.894	677.4
373.295	679.8
373.696	690.4
374.097	691
374.499	712.2
374.9	678.8
375.301	662.4
375.703	683.6
376.105	673.8
376.506	681.2
376.908	687.4
377.309	683.4
377.711	685.8
378.113	678.2
378.493	679.4
378.895	680.8
379.297	691.8
379.699	671.2
380.102	694
380.504	681
380.906	674.2
381.308	705.8
381.71	679.4
382.113	690.4
382.515	676
382.918	683.6
383.299	682.2
383.701	690.2
384.104	680
384.507	658.8
384.909	680
385.312	671.6
385.715	663.6
386.118	679.2
386.521	664.8
386.924	698.8
387.327	673
387.709	661
388.112	666.6
388.515	677.8
388.918	683.6
389.322	692.2
389.725	680.6
390.129	709.6
390.532	692.8
390.936	675.6
391.339	677
391.743	685.2
392.125	671.8
392.529	681.8
392.933	693
393.337	684.8
393.74	683.8
394.144	686.6
394.548	672
394.953	677.4
395.357	687.6
395.761	680.4
396.144	682.8
396.548	674.8
396.952	684
397.357	685.2
397.761	683.8
398.166	674.2
398.57	681.4
398.975	680
399.379	690
399.763	739.8
400.168	682.2
400.572	674.4
400.977	679
401.382	703.2
401.787	697.4
402.192	709.6
402.597	693.4
403.002	670.4
403.386	694.4
403.791	710.8
404.197	678.8
404.602	682.8
405.007	684.6
405.413	681
405.818	693
406.224	669.4
406.608	683.6
407.014	681.8
407.42	706
407.825	677.2
408.231	688
408.637	681.6
409.043	691.4
409.449	676
409.834	673.2
410.24	688
410.646	701.2
411.052	687.4
411.458	682
411.865	687.8
412.271	694.4
412.677	681.8
413.062	698.6
413.469	672.6
413.875	705
414.282	693
414.689	684.6
415.095	686.4
415.502	673.4
415.888	685
416.294	663.6
416.701	724.8
417.108	678.6
417.515	694.6
417.923	680.6
418.33	716.4
418.715	697.6
419.123	684.6
419.53	680.6
419.937	681.8
420.345	698
420.752	684
421.16	702.2
421.546	693.2
421.953	693
422.361	671.4
422.769	692.6
423.177	681
423.585	716.4
423.992	716.4
424.379	700.6
424.787	688.6
425.195	706.2
425.603	685.8
426.011	704.6
426.419	702.2
426.806	688.8
427.214	694.2
427.623	699
428.031	706.6
428.44	695
428.848	704.4
429.235	699
429.644	682.2
430.053	690.6
430.461	711
430.87	707
431.279	708.4
431.666	683.8
432.075	689.2
432.484	695.2
432.893	683
433.302	710.4
433.711	754
434.099	692
434.508	684.8
434.918	671.4
435.327	691.6
435.737	699.2
436.125	692.2
436.534	690.6
436.944	684.8
437.353	692.2
437.763	711.2
438.173	670.2
438.561	709.2
438.971	662.8
439.381	686.2
439.791	682.6
440.201	661.8
440.589	688.6
440.999	694.4
441.409	688
441.819	674.8
442.23	695
442.619	691
443.029	677.8
443.439	694.4
443.85	686
444.26	700.4
444.649	684.8
445.06	682.8
445.471	673.6
445.881	681.8
446.292	704.4
446.682	701.4
447.092	656
447.503	742
447.914	687.2
448.325	682
448.715	687.4
449.126	672.2
449.537	678.2
449.948	684.6
450.338	681.6
450.75	695.4
451.161	684
451.572	691
451.984	668.6
452.374	660.4
452.786	678.8
453.197	688
453.609	682.8
453.999	664.6
454.411	667
454.823	701.8
455.235	691
455.647	673.8
456.037	676.8
456.449	668
456.862	680.4
457.274	679.4
457.665	679
458.077	685.8
458.489	715
458.902	674
459.293	687.8
459.705	678
460.118	676.6
460.53	678.4
460.921	685.2
461.334	681.4
461.747	679.2
462.16	685.6
462.551	688.6
462.964	691.2
463.377	672.2
463.79	669.6
464.182	679.6
464.595	673.8
465.008	686.2
465.421	684
465.813	669
466.226	695.4
466.64	673.6
467.053	722
467.445	691.6
467.859	688.8
468.272	679.4
468.686	691.4
469.078	676
469.492	664.6
469.906	683.4
470.298	678
470.712	676.8
471.126	747.2
471.54	663.8
471.933	671.4
472.347	668.4
472.761	670.2
473.175	668.4
473.568	661.4
473.982	661.4
474.397	672.8
474.79	673.6
475.204	683.2
475.619	667
476.033	679.6
476.426	676.6
476.841	661.8
477.256	696.6
477.649	664
478.064	671
478.479	662.6
478.872	659.6
479.287	654.8
479.702	666.6
480.118	673.2
480.511	664.6
480.927	670.8
481.342	666.8
481.736	678.6
482.151	664.6
482.566	695
482.96	664.6
483.376	686.4
483.792	663.4
484.186	674.6
484.602	680
485.017	684.8
485.412	673.2
485.827	678.4
486.243	661.4
486.638	707
487.054	681.6
487.47	695.4
487.865	671
488.281	671.8
488.697	660.6
489.092	664.8
489.508	664.8
489.925	680.2
490.32	660
490.736	675.8
491.153	671.4
491.548	676.4
491.964	685.4
492.381	665.6
492.776	675.4
493.193	680.4
493.61	679.8
494.006	676.4
494.422	684.2
494.84	666.4
495.235	675.2
495.652	673.2
496.069	678.6
496.465	657.2
496.883	674.6
497.3	710.6
497.696	664.6
498.113	682.6
498.509	657.8
498.927	665.6
499.344	660.2
499.741	667.8
500.158	681.6
500.576	689
500.973	673.6
501.39	661.6
501.787	663.6
502.205	672.8
502.623	655.4
503.02	657.4
503.438	670
503.856	666.6
504.253	674.2
504.671	684.8
505.068	661.6
505.486	673.4
505.905	693.4
506.302	679.6
506.72	679.8
507.118	669.2
507.536	674
507.955	668
508.352	675.2
508.771	683.6
509.169	682.2
509.587	673.4
510.006	679.2
510.404	665.6
510.823	656.2
511.221	673
511.64	662.4
512.038	685.6
512.457	669.6
512.877	667.6
513.275	661.6
513.694	661.2
514.092	660.6
514.512	679.6
514.91	669
515.33	669.8
515.749	673.6
516.148	675.6
516.568	677.4
516.966	672
517.386	670.4
517.785	667.6
518.205	663.4
518.603	665.6
519.024	663.8
519.444	678.4
519.843	684.2
520.263	678.6
520.662	668.8
521.082	667
521.481	676.2
521.902	668.8
522.301	660.4
522.722	671.4
523.121	671.4
523.542	663.8
523.963	662.2
524.362	665.2
524.783	679.8
525.183	676.6
525.604	673.4
526.003	663.2
526.425	659.8
526.824	681.6
527.246	681
527.646	682.2
528.067	675
528.467	677.8
528.888	677
529.289	676.2
529.71	671.8
530.11	665
530.532	660.4
530.932	670.8
531.354	664.8
531.755	706.6
532.176	679.6
532.577	664
532.999	670.6
533.4	664.8
533.822	684.4
534.223	677.8
534.645	665.2
535.046	675.2
535.468	670.8
535.869	686.4
536.292	668.2
536.693	714.8
537.115	673.4
537.516	663.8
537.939	673.2
538.34	694
538.742	680.8
539.165	663.2
539.566	686
539.989	662.2
540.391	665.6
540.814	674.4
541.216	676.4
541.639	672.8
542.041	671
542.464	671.2
542.866	667.6
543.268	657.6
543.691	673
544.093	679.4
544.517	679.2
544.919	657.8
545.343	699.2
545.745	654
546.147	680.2
546.571	663.2
546.974	659.2
547.398	676.4
547.8	679.6
548.224	668
548.627	669
549.03	674.6
549.454	660.6
549.857	644.6
550.281	661.4
550.684	658
551.087	679.4
551.512	674.6
551.915	670.4
552.34	666.2
552.743	657.2
553.146	657.6
553.571	661.4
553.975	693.4
554.399	657.8
554.803	728.2
555.207	661.6
555.632	659.2
556.036	667.2
556.461	652.2
556.865	663.4
557.268	659.6
557.694	668.4
558.098	674.8
558.502	685.8
558.927	664.4
559.332	671
559.736	663.6
560.162	667.6
560.566	669
560.992	676.6
561.396	669
561.801	661.4
562.227	669.6
562.631	669.4
563.036	669.8
563.462	673.2
563.867	676.4
564.272	653.6
564.698	677.6
565.103	657.6
565.508	686.2
565.935	668.8
566.34	657.2
566.745	676.8
567.172	663.2
567.577	703.4
567.982	682.4
568.409	672.2
568.815	668
569.22	669.2
569.626	677
570.053	644
570.459	657.6
570.865	680.4
571.292	668.8
571.698	673.8
572.104	650.8
572.531	665.8
572.937	681.6
573.343	668.2
573.75	665.4
574.177	668.2
574.583	669
574.99	667.8
575.396	679.6
575.824	657.8
576.231	677.6
576.637	656.6
577.065	700
577.472	667
577.879	665.4
578.286	678.6
578.714	659.2
579.121	657
579.528	664.6
579.935	670.6
580.364	669.6
580.771	650.6
581.178	657
581.585	672
582.014	669.8
582.421	659.2
582.829	658.2
583.236	666.6
583.644	659.2
584.073	669
584.481	666.8
584.889	652
585.296	670
585.726	675.6
586.134	663.4
586.542	656
586.95	683.2
587.358	654
587.787	664.8
588.196	653
588.604	659.2
589.012	664
589.421	647.2
589.851	652.2
590.259	672
590.668	660.2
591.076	710
591.485	655.2
591.894	671.8
592.324	679.2
592.733	679
593.142	651
593.551	665.2
593.96	695.6
594.369	649.4
594.8	660.8
595.209	663.2
595.618	643.2
596.028	661.4
596.437	653.4
596.847	666.2
597.256	674.6
597.687	667.4
598.097	664.4
598.507	650
598.917	661
599.327	669
599.736	668
600.146	678.6
600.556	662.8
600.988	680.8
601.398	667
601.808	673
602.219	660.2
602.629	662
603.039	669
603.45	707.2
603.86	667.8
604.271	682
604.703	674.2
605.114	666.2
605.525	672.4
605.935	666.6
606.346	686.8
606.757	673.4
607.168	664.8
607.579	664.2
607.99	678.4
608.402	673.8
608.813	670.4
609.224	650.6
609.636	655
610.047	652.8
610.48	671.8
610.892	682.4
611.303	670.4
611.715	667.6
612.127	656.8
612.539	664.4
612.95	672.2
613.362	651.4
613.774	654.8
614.186	657.6
614.599	659.8
615.011	676.6
615.423	664.8
615.835	662.2
616.248	652.2
616.66	667
617.073	664
617.485	667.6
617.898	672.2
618.311	660.8
618.723	656
619.136	694
619.549	679.8
619.962	684.8
620.375	659.2
620.788	665.2
621.201	653.6
621.614	666.8
622.028	657.4
622.441	667.6
622.854	675.2
623.268	657.2
623.681	663.6
624.095	665.8
624.509	668.6
624.922	676
625.336	655.2
625.728	662.4
626.142	684.8
626.556	684.8
626.97	672.4
627.384	662.6
627.799	666.2
628.213	687
628.627	663.2
629.041	658.6
629.456	664
629.87	666.4
630.285	675
630.699	677
631.093	655.2
631.507	670.2
631.922	668
632.337	676
632.752	658.4
633.167	665
633.582	652.2
633.997	661.6
634.412	655.4
634.806	662.8
635.221	660.6
635.637	676.4
636.052	650.6
636.468	661.2
636.883	690
637.299	663
637.715	648.8
638.109	660
638.525	651
638.941	675.4
639.357	669.4
639.773	679.8
640.189	649.8
640.584	662.4
641	657.4
641.416	653.2
641.832	657.4
642.249	659.8
642.665	661.6
643.06	674
643.477	680.4
643.894	648
644.31	665.8
644.727	661.4
645.123	658
645.54	652
645.957	668.8
646.374	679.4
646.77	659.2
647.187	695.6
647.604	667
648.021	645.2
648.439	657
648.835	668
649.252	664.2
649.67	659.2
650.088	667
650.484	666
650.902	671.4
651.32	674.6
651.738	655.4
652.134	664.6
652.552	677.4
652.971	672
653.389	655
653.786	671.8
654.204	685
654.622	659.2
655.019	663.4
655.438	665.6
655.857	661.2
656.275	670.8
656.673	644.4
657.091	738.8
657.51	651.2
657.908	666.8
658.327	681
658.746	646.2
659.144	667.6
659.563	680.6
659.982	667.4
660.38	647.4
660.8	673.4
661.219	671.8
661.617	666.4
662.037	661.6
662.457	680.8
662.855	652.2
663.275	702
663.695	659.4
664.094	661.4
664.514	669.8
664.934	656
665.333	670
665.753	663.8
666.152	651.8
666.572	653.2
666.993	674
667.392	660.6
667.812	664.2
668.212	653.2
668.632	676.2
669.053	663.2
669.453	669.6
669.874	669
670.273	676.6
670.694	648.4
671.116	680.6
671.515	674.4
671.937	658.8
672.337	661.4
672.758	659
673.158	664.2
673.58	657.6
673.98	672.8
674.402	680.2
674.824	661.4
675.224	659.2
675.646	650
676.047	653.2
676.469	650.8
676.869	665.6
677.292	664.6
677.693	649.8
678.115	656.2
678.516	657
678.939	667.2
679.34	660
679.762	679
680.164	663.4
680.586	654.2
680.988	664.8
681.411	688.4
681.812	652.2
682.236	651.8
682.637	652.6
683.061	652
683.462	660.8
683.864	655.8
684.288	670.4
684.69	646.4
685.114	663.6
685.516	675.8
685.94	651.6
686.342	669.2
686.766	651.2
687.168	652
687.571	682.6
687.995	654.4
688.398	649
688.822	654.6
689.225	676
689.628	686
690.052	660.8
690.456	657
690.88	664.6
691.284	652.6
691.687	670
692.112	646
692.515	646.4
692.919	655.2
693.344	660.8
693.747	656.6
694.173	646.8
694.577	670
694.98	656.8
695.406	652.6
695.81	657
696.214	670.8
696.64	663.6
697.044	671.4
697.448	663.2
697.874	666
698.279	662.4
698.684	643.4
699.11	658.6
699.514	662.2
699.919	653.6
700.324	652.6
700.75	664.8
701.156	663.4
701.561	676.4
701.987	669.8
702.393	679
702.798	682
703.203	662.8
703.63	655.4
704.036	662.2
704.442	664.2
704.847	653
705.274	656
705.68	667.4
706.086	676
706.492	653.4
706.92	662
707.326	674.6
707.732	657.2
708.139	644.4
708.545	647.8
708.973	646.6
709.38	663.4
709.786	651.4
710.193	667.2
710.6	671.6
711.028	645
711.435	658.6
711.842	659.8
712.249	662.4
712.656	659.8
713.064	677.2
713.492	649.6
713.9	656.6
714.307	663.8
714.715	667.2
715.123	659.4
715.53	661
715.938	669.4
716.367	652.2
716.775	655
717.184	656
717.592	662.8
718	671.8
718.408	701.2
718.816	712.2
719.225	660
719.633	662.6
720.042	655.8
720.472	655
720.881	679.6
721.29	659.4
721.699	654
722.108	657
722.517	669.2
722.926	647.8
723.335	662.2
723.744	664
724.154	655.6
724.563	661.8
724.973	656.4
725.382	658.8
725.792	657.2
726.202	649
726.612	679.6
727.022	670.8
727.432	643.2
779.813	652.6
780.223	706.8
780.634	658.4
781.044	646.8
781.454	661.4
781.865	669.8
782.276	653.4
782.686	667.2
783.097	657.8
783.508	657.8
783.919	666.2
784.33	681.2
784.741	674.8
785.152	655
785.563	648
785.974	647.8
786.386	669.6
786.776	653.2
787.188	658.8
787.599	651.8
788.011	658.4
788.423	662.2
788.835	651.2
789.247	648.8
789.659	657.2
790.071	650.6
790.483	705.8
790.874	656
791.286	670.6
791.699	662
792.111	660.8
792.524	661.6
792.937	650.4
793.349	644.2
793.741	658.6
794.154	666.8
794.567	677.8
794.98	652.8
795.393	646.8
795.785	674.2
796.198	657
796.612	660
797.026	660.4
797.439	636.6
797.831	655.6
798.245	644
798.659	660.2
799.073	656.2
799.487	651.8
799.88	657
800.294	659.8
800.708	667
801.123	665
801.516	675.2
801.93	644.2
802.345	636
802.76	653.8
803.153	669.8
803.568	674.2
803.983	662.4
804.377	655
804.792	645.6
805.207	643
805.601	667
806.016	698
806.432	643.2
806.826	693.4
807.242	670.8
807.658	661.2
808.052	651.2
808.468	663.8
808.884	652.6
809.279	657.4
809.695	669.8
810.111	677.8
810.506	663.8
810.922	683.2
811.339	653.6
811.734	668
812.151	648
812.546	642.6
812.963	655.8
813.38	674.4
813.776	658
814.193	686
814.589	651
815.006	656.2
815.402	647.8
815.82	650.2
816.237	655.2
816.633	662
817.051	650.6
817.448	657.2
817.866	649.4
818.262	686
818.68	653.6
819.077	657.8
819.495	665.4
819.892	703.2
820.311	649.4
820.708	654.6
821.127	662.2
821.524	663
821.943	665.2
822.34	682.8
822.759	646.8
823.157	656.6
823.576	682.4
823.974	665.4
824.393	733.4
824.791	656
825.189	658.4
825.609	648
826.007	659.6
826.427	645.6
826.826	652.2
827.246	656.2
827.644	639
828.043	670.2
828.463	647.2
828.862	668.6
829.261	653.4
829.682	644.4
830.081	661
830.502	642.6
830.901	656
831.301	652.2
831.722	636
832.121	651.4
832.521	649
832.943	655
833.342	648
833.742	653.2
834.164	646.8
834.564	633.4
834.965	650.8
835.386	649.4
835.787	651.8
836.188	657.2
836.588	651.6
837.01	653.4
837.411	643
837.812	659.6
838.213	654.6
838.636	649.6
839.037	726.6
839.438	659.4
839.84	660.8
840.263	655
840.664	662.2
841.066	654
841.468	653.4
841.891	648.4
842.293	673.4
842.695	647.4
843.098	668.4
843.5	645.6
843.902	658.8
844.326	660.6
844.729	656.4
845.131	672.2
845.534	659.2
845.937	664.8
846.34	678.6
846.764	649.8
847.167	659
847.571	648.2
847.974	651.8
848.377	657.2
848.781	708.4
849.184	670.4
849.588	646.6
849.992	655
850.396	667
850.821	674.4
851.225	652.8
851.63	656.6
852.034	677.8
852.438	646.6
852.843	696.2
853.247	650.6
853.652	654
854.057	671.2
854.462	662
854.867	659.8
855.272	692.6
855.677	657.8
856.082	647
856.487	647.2
856.893	662.6
857.298	659.8
857.704	650.6
858.11	656.8
858.516	654.2
858.922	667
859.328	665.8
859.734	662.4
860.14	661.8
860.525	655
860.931	647.2
861.338	649.6
861.745	666.2
862.151	664.4
862.558	663.2
862.965	651.6
863.372	648
863.779	652.6
864.186	673.8
864.572	656
864.98	673.6
865.387	696.2
865.795	647.4
866.203	671.6
866.61	643
867.018	665.2
867.405	659.6
867.813	661.4
868.221	653.4
868.63	650
869.038	669.6
869.425	694.4
869.834	657.8
870.243	650.6
870.652	653
871.039	644.2
871.448	649
871.857	660
872.266	659.4
872.654	656.8
873.064	650
873.473	659.4
873.883	657.2
874.271	645.4
874.681	669.4
875.091	643
875.48	665.8
875.89	670.2
876.3	651.2
876.689	635.2
877.1	649.2
877.51	658.6
877.9	680.6
878.31	641
878.721	686
879.111	662
879.522	642.4
879.933	641.4
880.323	652.4
880.734	649
881.125	652.4
881.536	645.8
881.948	640.6
882.338	655.2
882.75	659.4
883.141	648.4
883.553	654.4
883.944	687.8
884.356	668.6
884.769	656.2
885.16	656.8
885.573	649.6
885.964	643
886.377	655.2
886.768	641.4
887.181	655.8
887.573	644.2
887.987	664.4
888.378	665.4
888.792	653.8
889.184	709.4
889.598	650.4
889.99	651.2
890.383	654.6
890.797	641.8
891.19	657.8
891.604	647.4
891.997	646.8
892.411	648
892.805	648.6
893.198	654.2
893.613	635.4
894.006	653.6
894.421	635.8
894.815	654.6
895.209	647.4
895.624	700.2
896.018	679.6
896.412	648.4
896.828	658.2
897.222	671
897.617	642.6
898.033	675
898.427	658.6
898.822	648.6
899.239	647.4
899.634	640.6
900.029	680.4
900.424	651.2
900.841	646.2
901.236	660.8
901.632	660.4
902.027	713.6
902.445	665.6
902.841	656.6
903.237	652.8
903.633	674.8
904.05	661
904.447	657.6
904.843	660.6
905.24	653
905.636	643.6
906.033	646
906.451	669.2
906.848	649.2
907.246	647.8
907.643	662.2
908.04	660.6
908.438	678.2
908.835	668.8
909.254	651.6
909.652	659.4
910.05	649.8
910.448	641.8
910.846	662.6
911.244	633.4
911.643	662.4
912.041	652.8
912.44	662.6
912.839	640.8
913.237	642.6
913.636	649.2
914.035	651
914.434	649
914.834	671.2
915.233	669.6
915.633	651
916.032	637.4
916.432	652
916.832	667
917.232	654.2
917.632	642
918.032	659
918.432	650
918.833	647.4
919.233	653.4
919.634	642
920.035	661.4
920.436	646.2
920.837	661.8
921.238	641.6
921.639	649.4
922.019	659.8
922.42	660
922.822	662.2
923.224	651.6
923.625	640.4
924.027	654.6
924.429	679.8
924.81	659.4
925.212	667
925.615	655.4
926.017	654.6
926.42	668.6
926.801	664.2
927.204	656.4
927.607	658
928.01	671.6
928.413	653.8
928.795	636.8
929.199	646.4
929.602	657.2
930.006	646.2
930.388	644.2
930.792	656
931.196	653
931.579	691.4
931.983	637.2
932.388	700.8
932.771	651
933.176	644
933.58	646.6
933.964	663.6
934.369	635.2
934.774	655.4
935.158	648
935.563	649.8
935.947	655.8
936.353	651.4
936.759	660.2
937.143	652.6
937.549	651.6
937.934	656.2
938.34	677
938.746	639.2
939.131	651.2
939.538	641.6
939.923	659.8
940.33	639
940.716	652.6
941.123	646.6
941.508	653.6
941.916	669.8
942.302	651.6
942.709	646.6
943.096	635.2
943.503	646.6
943.89	654.2
944.298	649.8
944.685	685.6
945.072	645.2
945.48	668.6
945.867	640.6
946.276	645.6
946.663	668.6
947.051	668
947.46	666
947.848	649.6
948.257	644
948.645	656.2
949.033	642.4
949.443	639.2
949.831	688
950.22	640
950.63	662.8
951.018	684
951.407	650.4
951.796	646
952.207	648
952.596	657
952.985	635.8
953.375	709.2
953.786	659.8
954.176	642
954.566	660.6
954.956	638.8
955.367	643.4
955.758	676.6
956.148	653.2
956.539	668
956.929	651.8
957.341	635.8
957.732	660.6
958.123	657.6
958.515	639.4
958.906	662
959.297	650.4
959.689	656.6
960.102	637.4
960.494	656.6
960.886	650.2
961.278	650.2
961.67	671.2
962.062	701.8
962.455	650.6
962.847	644.6
963.24	650.8
963.633	652.8
964.026	647.6
964.419	653.4
964.812	664.8
965.206	645.6
965.599	654.8
965.993	650.6
966.386	643.6
966.78	652.4
967.174	665.8
967.569	642.4
967.963	645.4
968.357	645.2
968.752	641
969.146	642.8
969.541	645.8
969.936	649.8
970.331	653.8
970.705	641.6
971.1	647.8
971.496	663.8
971.892	647.6
972.287	654.6
972.683	652
973.079	647.8
973.454	661.8
973.85	653.6
974.247	663
974.643	681.4
975.04	651.8
975.415	646.6
975.812	651.8
976.209	652.6
976.607	643.8
976.982	656.6
977.38	670.4
977.778	653.4
978.175	645
978.552	650.4
978.95	652
979.348	660.6
979.725	712.2
980.123	641.6
980.522	649.2
980.899	648.6
981.298	638.6
981.697	642.8
982.075	644.6
982.474	635.2
982.852	650.2
983.251	646.4
983.651	641.8
984.029	657.4
984.429	649.6
984.808	642.8
985.208	654.2
985.609	651
985.987	637.8
986.388	652.2
986.768	652.4
987.168	642.2
987.548	663
987.949	653.4
988.329	661.2
988.731	632.8
989.111	651.8
989.491	653
989.893	647.6
990.273	664.2
990.676	635.4
991.057	638.4
991.459	650.2
991.84	656
992.221	641.4
992.624	673.6
993.006	643.2
993.388	650.2
993.791	661.6
994.173	653.8
994.576	690.8
994.959	644.8
995.341	648.6
995.724	651.6
996.128	652.4
996.511	651.8
996.894	649.8
997.298	650.6
997.681	661.6
998.065	662.8
998.448	644.6
998.854	659.8
999.237	643.6
999.621	669.4
1000.01	663.6
1000.39	652.2
1000.8	649.4
1001.18	658
1001.56	656.4
1001.95	657.6
1002.33	652.4
1002.72	652.6
1003.13	649.4
1003.51	654.6
1003.9	635.6
1004.28	670
1004.67	644.2
1005.06	648.8
1005.44	693.6
1005.83	641.6
1006.21	655
1006.6	641.4
1006.99	660.4
1007.37	664
1007.76	653.6
1060.12	651.4
1060.51	647.6
1060.89	654.4
1061.28	656.4
1061.67	659.4
1062.06	651.6
1062.45	649.4
1062.83	639.4
1063.22	660
1063.61	695.2
1064	653.6
1064.39	649.2
1064.78	651.4
1065.14	664
1065.53	653.8
1065.92	654.6
1066.31	640.6
1066.7	661.8
1067.09	661
1067.46	659.4
1067.85	645.2
1068.24	648.6
1068.63	650
1069.02	649
1069.39	654.8
1069.78	650.2
1070.17	650.8
1070.57	643.4
1070.93	659.2
1071.33	640.4
1071.72	652.6
1072.11	645.2
1072.48	646.4
1072.87	659.4
1073.26	651.2
1073.64	645.8
1074.03	629.2
1074.4	646.6
1074.79	641.4
1075.19	654.6
1075.56	651.4
1075.95	650.8
1076.34	654.8
1076.72	643
1077.11	655.6
1077.48	662.4
1077.88	658.4
1078.25	653.4
1078.64	651
1079.02	663
1079.41	662.6
1079.78	646.4
1080.18	643.4
1080.55	735.6
1080.95	639.8
1081.32	650.8
1081.72	650.4
1082.09	645
1082.49	638.4
1082.86	649
1083.24	642.8
1083.63	632.2
1084.01	647.8
1084.38	656.6
1084.78	633.8
1085.16	644.6
1085.55	655.8
1085.93	663.6
1086.31	636.4
1086.7	679.2
1087.08	646.2
1087.46	648.4
1087.83	636
1088.23	651.8
1088.61	641.2
1088.99	648.6
1089.36	644.6
1089.76	647
1090.14	633.4
1090.52	643.2
1090.9	640.6
1091.27	643.6
1091.67	669.4
1092.05	654.4
1092.43	635.2
1092.81	649.6
1093.19	648.4
1093.57	644.8
1093.95	655.2
1094.35	658
1094.73	651.6
1095.11	637
1095.49	638.6
1095.87	648.6
1096.25	657.6
1096.63	661
1097.01	644
1097.39	651
1097.77	650
1098.15	649.2
1098.53	639.6
1098.91	645.4
1099.29	643.6
1099.68	659.6
1100.06	660.8
1100.44	644.8
1100.82	656
1101.18	654.6
1101.56	637.2
1101.95	642.2
1102.33	638.8
1102.71	648.8
1103.1	636.4
1103.48	636.2
1103.86	643.2
1104.22	662
1104.61	646.2
1104.99	640.2
1105.38	641.6
1105.76	649.4
1106.12	648.6
1106.51	681
1106.89	657.6
1107.26	645.2
1107.64	663.4
1108.03	646.8
1108.41	646.4
1108.78	650.6
1109.16	645.4
1109.55	668.8
1109.91	635.8
1110.3	635
1110.69	671.4
1111.05	643
1111.44	636.8
1111.8	653
1112.19	651.2
1112.58	652.6
1112.94	644.6
1113.33	648.4
1113.7	643
1114.09	636.4
1114.45	644
1114.84	653.8
1115.21	654.2
1115.6	638
1115.96	667.4
1116.35	656.8
1116.72	639
1117.11	652.4
1117.48	650.6
1117.85	647.6
1118.24	668.6
1118.6	650.6
1118.99	653.2
1119.36	653.6
1119.73	656.8
1120.12	647
1120.49	633.8
1120.86	651.4
1121.25	650.6
1121.62	633.2
1121.99	641
1122.38	660.4
1122.76	641.2
1123.13	642.6
1123.5	651.8
1123.89	656
1124.26	631.6
1124.63	651.4
1125	654.6
1125.4	635.8
1125.77	642.2
1126.14	619
1126.51	639.2
1126.88	640.4
1127.26	643.2
1127.63	628.4
1128.02	645.8
1128.4	641.2
1128.77	647.2
1129.14	637.2
1129.52	634.8
1129.89	654.8
1130.26	640
1130.64	634.4
1131.01	645.6
