#lambda/nm	C1
208.295	529
208.67	485.2
209.045	444.8
209.419	441.2
209.794	686.8
210.169	660
210.544	804.8
210.919	699.8
211.295	678.2
211.67	692.6
212.045	687.4
212.421	678.6
212.796	733.4
213.172	682.4
213.547	680.4
213.923	687.6
214.299	683.8
214.675	699.4
215.051	691.4
215.427	695
215.803	704.6
216.179	694.2
216.555	687.6
216.932	697.4
217.308	697
217.684	687.8
218.061	695.4
218.438	697.8
218.814	683.2
219.191	691.2
219.568	680.2
219.945	684.6
220.322	700.8
220.699	699.4
221.076	700
221.453	701.4
221.83	687
222.208	685.2
222.585	683
222.962	694.2
223.34	695.8
223.717	696.4
224.095	694.2
224.473	696.8
224.851	684.8
225.229	688.6
225.607	704.2
225.985	673.8
226.363	700.4
226.741	697
227.119	691.2
227.497	703.2
227.876	667.2
228.254	693.8
228.633	691.2
229.011	690.4
229.39	692.2
229.769	690.4
230.148	696.4
230.527	714
230.905	684.4
231.284	688.8
231.664	683
232.043	698
232.422	697.2
232.801	687.8
233.181	693
233.56	688.8
233.94	693.8
234.319	676.6
234.699	691.2
235.079	738.2
235.458	733.8
235.838	712.2
236.218	689
236.598	670.8
236.978	694.2
237.358	682.6
237.738	680
238.119	700.2
238.499	683.8
238.88	689.6
239.26	707.8
239.641	671
240.021	681.8
240.402	691.2
240.783	683.2
241.163	685
241.544	689.8
241.925	686
242.306	707.6
242.687	689.2
243.069	691
243.45	701.8
243.831	689.2
244.212	692
244.594	731.4
244.975	692.8
245.357	691.6
245.739	682
246.12	681
246.502	703
246.884	684.6
247.266	687.2
247.648	695.4
248.03	718.2
248.412	694.8
248.794	693
249.176	692.8
249.559	694.4
249.941	687.4
250.323	670.4
250.706	685.4
251.089	697.6
251.471	701.8
251.854	697.2
252.237	691.8
252.62	698.4
253.002	693.6
253.385	688.8
253.769	706.4
254.152	686.2
254.535	701
254.918	672.6
255.301	683.4
255.685	685.2
256.068	682.2
256.452	712
256.835	699.2
257.219	705
257.603	705.6
257.986	675.6
258.37	701.2
258.754	672.6
259.138	698
259.522	705.4
259.906	683
260.29	700.6
260.675	685.6
261.059	700.6
261.443	685.6
261.828	695.8
262.212	696.6
262.597	675
262.981	691.8
263.366	695.6
263.751	686.6
264.136	687.2
264.521	695.2
264.906	688.6
265.291	705.4
265.676	690.4
266.061	699.2
266.446	707.8
266.831	693.8
267.217	717.4
267.602	698.6
267.987	700.2
268.373	692
268.759	698.2
269.144	707.8
269.53	689
269.916	684.2
270.302	685.8
270.688	701.2
271.074	687.4
271.46	719.8
271.846	736.4
272.232	693.6
272.618	687.2
273.004	694.2
273.391	715.6
273.777	712.8
274.164	699.2
274.55	714
274.937	705.4
275.324	692.8
275.71	701.6
276.097	700.8
276.484	682.8
276.871	701.2
277.258	701.2
277.645	679.8
278.032	689.2
278.419	689.6
278.807	700
279.194	687.4
279.581	683.8
279.969	685.8
280.356	697
280.744	689.4
281.131	715
281.519	702.2
281.907	680.2
282.295	694.4
282.682	703.2
283.07	701.2
283.458	707.4
283.846	704
284.235	712.2
284.623	707.2
285.011	677
285.399	683.2
285.788	696.4
286.176	675.2
286.565	704.4
286.953	685.4
287.342	687.6
287.731	686.6
288.119	679.8
288.508	682
288.897	686.8
289.286	673.8
289.675	685.2
290.064	698.2
290.453	682.4
290.821	681.8
291.21	715.4
291.599	685.2
291.989	681
292.378	693.6
292.768	706
293.157	689.4
293.547	707.6
293.936	679.2
294.326	680.8
294.716	691.4
295.106	683.2
295.496	700.2
295.886	699.4
296.276	694.2
296.666	682.6
297.056	686.4
297.446	681.2
297.836	710.6
298.227	686.6
298.617	692
299.008	710.2
299.398	691.4
299.789	682.8
300.179	702
300.57	709.4
300.961	684.4
301.352	687.8
301.742	701.4
302.133	702
302.524	691.2
302.915	698.8
303.307	683
303.698	700.6
304.089	709
304.48	699.2
304.872	701.2
305.263	691.2
305.655	683.4
306.046	705
306.438	700.6
306.829	686.6
307.221	707.8
307.613	698.4
308.005	707.2
308.397	707
308.789	708.4
309.181	719.8
309.573	713.6
309.965	707.2
310.357	690.6
310.749	701.4
311.142	683
311.534	694.4
311.926	707.4
312.319	702.4
312.711	687.6
313.104	708.2
313.497	693.2
313.889	741.8
314.282	710.6
314.675	715.2
315.068	696
315.461	697.4
315.854	732.6
316.247	704.6
316.64	691.4
317.033	696.6
317.405	704.6
317.798	690.4
318.192	698.4
318.585	687
318.979	708
319.372	678
319.766	692.8
320.16	703
320.553	700.4
320.947	713.4
321.341	681.2
321.735	685.4
322.129	679
322.523	726.4
322.917	693.8
323.311	705
323.705	705.4
324.099	709.6
324.494	715.4
324.888	700.6
325.282	692.4
325.677	707.2
326.071	699
326.466	713.6
326.861	699.4
327.255	712.8
327.65	707.8
328.045	713.4
328.44	697
328.835	693.8
329.23	693.2
329.625	720.8
330.02	688.8
330.415	725.6
330.81	699.8
331.206	698.4
331.601	688
331.996	704.8
332.37	721.4
332.766	678.4
333.161	721.4
333.557	682.2
333.953	695.2
334.348	1029.4
334.744	697
335.14	692
335.536	684.2
335.932	709.8
336.328	696.4
336.724	708.8
337.12	693.8
337.516	694.4
337.913	702.4
338.309	712.2
338.705	695.8
339.102	711.8
339.498	692.2
339.895	704.6
340.291	688.4
340.688	707
341.085	682.2
341.481	687
341.878	700.4
342.275	718.6
342.672	692.6
343.069	689.4
343.466	677.6
343.842	710.2
344.239	678.4
344.636	695.4
345.033	692.2
345.431	684
345.828	691.4
346.225	684.6
346.623	738.4
347.02	693
347.418	696.2
347.816	714.6
348.213	688
348.611	699.2
349.009	679.6
349.407	719.4
349.805	677.2
350.203	680.2
350.601	707.6
350.999	687.2
351.397	766.8
351.795	682.6
352.193	706.2
352.57	703.8
352.969	704
353.367	681.8
353.766	683
354.164	687.2
354.563	709.8
354.961	688
355.36	693.6
355.759	692
356.158	675
356.557	679.6
356.956	684
357.355	678.8
357.754	695.2
358.153	698.4
358.552	719.4
358.951	697.4
359.35	705
359.75	687.4
360.149	681.2
360.527	676.6
360.926	681.2
361.326	694.6
361.726	692
362.125	683.8
362.525	700.4
362.925	683.2
363.325	688
363.724	699
364.124	677.2
364.524	685.4
364.924	686.6
365.324	695.8
365.725	673.8
366.125	692.8
366.525	690.4
366.904	673.2
367.304	673.8
367.705	702.6
368.105	696.8
368.506	695
368.906	683.4
369.307	691.2
369.708	689.8
370.108	665.6
370.509	698.8
370.91	682
371.311	696
371.712	682.2
372.113	693.6
372.514	669.6
372.894	680.6
373.295	682.4
373.696	692.4
374.097	696.4
374.499	727
374.9	696.2
375.301	688.4
375.703	696
376.105	673.2
376.506	695
376.908	696
377.309	690.6
377.711	689.4
378.113	667.8
378.493	685.8
378.895	679.6
379.297	698
379.699	670.2
380.102	687.6
380.504	694
380.906	682.6
381.308	712.4
381.71	690.6
382.113	698.8
382.515	678.8
382.918	682.8
383.299	678.8
383.701	687
384.104	683.2
384.507	672
384.909	683.6
385.312	667
385.715	672
386.118	675.8
386.521	675.4
386.924	687.8
387.327	674.4
387.709	662.2
388.112	673.8
388.515	671
388.918	683
389.322	689.4
389.725	679
390.129	716.2
390.532	680.8
390.936	676.8
391.339	665.6
391.743	694.8
392.125	674.4
392.529	703.6
392.933	704.2
393.337	682
393.74	679.4
394.144	681.2
394.548	680.2
394.953	675
395.357	686.8
395.761	678.8
396.144	680
396.548	682.8
396.952	677.4
397.357	680.4
397.761	678.8
398.166	681.2
398.57	678.6
398.975	668.4
399.379	682
399.763	742.2
400.168	680.2
400.572	683
400.977	679
401.382	710.8
401.787	693
402.192	702
402.597	702.8
403.002	680
403.386	701.4
403.791	708.6
404.197	685.6
404.602	682.4
405.007	689.6
405.413	681.6
405.818	693.6
406.224	675.8
406.608	682.8
407.014	682.2
407.42	702.2
407.825	676.8
408.231	701.6
408.637	699.6
409.043	706
409.449	677.4
409.834	677.4
410.24	675.6
410.646	703.2
411.052	693.6
411.458	696.6
411.865	690.2
412.271	694
412.677	693
413.062	691
413.469	671
413.875	721.4
414.282	701.6
414.689	682.8
415.095	698
415.502	680.6
415.888	687
416.294	664.6
416.701	735.4
417.108	672.6
417.515	689.2
417.923	677.6
418.33	712.2
418.715	698.2
419.123	680.2
419.53	678.8
419.937	682.2
420.345	693.6
420.752	670.6
421.16	697.2
421.546	681
421.953	693.6
422.361	676
422.769	682.8
423.177	680
423.585	706.2
423.992	707.6
424.379	704.4
424.787	697.4
425.195	707.8
425.603	690.6
426.011	706
426.419	698.2
426.806	696.8
427.214	689
427.623	699.6
428.031	720
428.44	692.4
428.848	707.8
429.235	710.4
429.644	687.2
430.053	691
430.461	706
430.87	721.6
431.279	691.4
431.666	685.2
432.075	691
432.484	696
432.893	689
433.302	713.2
433.711	742.4
434.099	693
434.508	685
434.918	682.6
435.327	699.8
435.737	683
436.125	682.8
436.534	685.2
436.944	686.2
437.353	694.2
437.763	707.6
438.173	668
438.561	702.6
438.971	664
439.381	704.4
439.791	689
440.201	664.2
440.589	684.8
440.999	693.4
441.409	692.4
441.819	681.4
442.23	690.2
442.619	685.8
443.029	685.4
443.439	696.6
443.85	700
444.26	701.2
444.649	703.2
445.06	690
445.471	672.8
445.881	687.6
446.292	703.4
446.682	705.2
447.092	669.2
447.503	750.4
447.914	690.6
448.325	688.4
448.715	689.2
449.126	681.2
449.537	682.4
449.948	688.8
450.338	683
450.75	694.2
451.161	687.6
451.572	687.8
451.984	680.2
452.374	674.6
452.786	680.6
453.197	685
453.609	692.6
453.999	669.2
454.411	673.4
454.823	701.8
455.235	682.2
455.647	680.2
456.037	687
456.449	672.6
456.862	680.6
457.274	692
457.665	670.4
458.077	688.4
458.489	714.6
458.902	679.6
459.293	690
459.705	684
460.118	679.2
460.53	685
460.921	681.2
461.334	693.4
461.747	684.2
462.16	692
462.551	692.8
462.964	687.4
463.377	667.2
463.79	677.6
464.182	694.8
464.595	674
465.008	680
465.421	685.4
465.813	674.6
466.226	684.8
466.64	687.2
467.053	728.4
467.445	692.8
467.859	704.4
468.272	678.8
468.686	701
469.078	686.2
469.492	667.2
469.906	689
470.298	686.8
470.712	673.8
471.126	737.6
471.54	667.6
471.933	670
472.347	682
472.761	676.8
473.175	666
473.568	677.6
473.982	666.2
474.397	676.8
474.79	682.2
475.204	685.2
475.619	680.6
476.033	684
476.426	670.6
476.841	670.8
477.256	701.6
477.649	681.2
478.064	668
478.479	666
478.872	669
479.287	658.8
479.702	673.6
480.118	675.2
480.511	675.6
480.927	675.4
481.342	673.8
481.736	677.8
482.151	672.6
482.566	690.2
482.96	681.2
483.376	685.2
483.792	681
484.186	691
484.602	673.2
485.017	675.6
485.412	679.6
485.827	679
486.243	671.4
486.638	707
487.054	690.6
487.47	708.6
487.865	671.4
488.281	667
488.697	667.6
489.092	671
489.508	664.2
489.925	689
490.32	652.4
490.736	683
491.153	683
491.548	682.8
491.964	690.2
492.381	667.2
492.776	683.2
493.193	671.4
493.61	679.2
494.006	679.2
494.422	675.2
494.84	671.8
495.235	688.4
495.652	674.2
496.069	670
496.465	667.6
496.883	679.4
497.3	699.6
497.696	679.4
498.113	671
498.509	656.2
498.927	658.6
499.344	663.6
499.741	658.4
500.158	685.6
500.576	693
500.973	676.2
501.39	678.8
501.787	658.6
502.205	676.4
502.623	676
503.02	663.4
503.438	673.8
503.856	680.8
504.253	676.2
504.671	675
505.068	668
505.486	662
505.905	699.8
506.302	675.6
506.72	689.6
507.118	669.2
507.536	672.8
507.955	675.6
508.352	675.8
508.771	678.2
509.169	686.2
509.587	675
510.006	676.4
510.404	671.6
510.823	668.8
511.221	668.4
511.64	663.2
512.038	691.4
512.457	673.4
512.877	683.8
513.275	671.2
513.694	679.8
514.092	671.4
514.512	684.2
514.91	678.6
515.33	681.8
515.749	681.8
516.148	678.8
516.568	678
516.966	674
517.386	666.2
517.785	671
518.205	672.6
518.603	666.4
519.024	664.2
519.444	674.8
519.843	675.4
520.263	682.2
520.662	678.2
521.082	666
521.481	668
521.902	675
522.301	671.2
522.722	679.6
523.121	674
523.542	663.6
523.963	668.6
524.362	679
524.783	679.4
525.183	668.6
525.604	682.8
526.003	670.2
526.425	667.2
526.824	676.2
527.246	679.2
527.646	677.8
528.067	662
528.467	679
528.888	682
529.289	673.4
529.71	681.6
530.11	666.6
530.532	663.2
530.932	668.4
531.354	662.8
531.755	707.8
532.176	679.6
532.577	669.2
532.999	675
533.4	671.2
533.822	684.6
534.223	676.6
534.645	674.6
535.046	674.8
535.468	677.6
535.869	693.6
536.292	666.8
536.693	714.8
537.115	678.4
537.516	662.2
537.939	674.4
538.34	693
538.742	689.4
539.165	676.8
539.566	667.4
539.989	662
540.391	659.4
540.814	668.2
541.216	669
541.639	668.8
542.041	683.2
542.464	664.8
542.866	659.4
543.268	654.2
543.691	669.8
544.093	681.8
544.517	693.2
544.919	662.6
545.343	695.2
545.745	660
546.147	677.4
546.571	667.2
546.974	661.2
547.398	681
547.8	684.4
548.224	663.4
548.627	667.4
549.03	674.4
549.454	661.6
549.857	651.2
550.281	667.4
550.684	671.8
551.087	677
551.512	669.8
551.915	682.4
552.34	671.2
552.743	660
553.146	672.6
553.571	674
553.975	697.2
554.399	662.4
554.803	733.8
555.207	673.4
555.632	666
556.036	680.6
556.461	668
556.865	671
557.268	665.4
557.694	672
558.098	674
558.502	674.8
558.927	675.8
559.332	664.6
559.736	677.2
560.162	673.6
560.566	669
560.992	677.2
561.396	673.6
561.801	669
562.227	665.8
562.631	664.6
563.036	670.8
563.462	677.2
563.867	676.8
564.272	657.2
564.698	667.8
565.103	656.8
565.508	698
565.935	672.6
566.34	672.2
566.745	687.2
567.172	668.2
567.577	696.8
567.982	694.8
568.409	678.6
568.815	664.8
569.22	679.6
569.626	676.2
570.053	653
570.459	668.8
570.865	680
571.292	675.2
571.698	673.8
572.104	657.4
572.531	653.2
572.937	671.8
573.343	670.8
573.75	677.4
574.177	673.6
574.583	678.4
574.99	663.6
575.396	673
575.824	675.2
576.231	689.6
576.637	662.4
577.065	698.2
577.472	657.4
577.879	670.4
578.286	682.8
578.714	668.8
579.121	671.4
579.528	679.8
579.935	686.4
580.364	665.8
580.771	647.8
581.178	659.6
581.585	673
582.014	685.4
582.421	663.8
582.829	660.4
583.236	676.8
583.644	659
584.073	658.2
584.481	679.2
584.889	655.4
585.296	676.4
585.726	671.8
586.134	668.4
586.542	664.2
586.95	682.6
587.358	661
587.787	671.4
588.196	656.2
588.604	671.2
589.012	675.2
589.421	658.6
589.851	665.8
590.259	672
590.668	661
591.076	712.2
591.485	655.6
591.894	664.6
592.324	685.4
592.733	685.8
593.142	653
593.551	667.4
593.96	707
594.369	652.6
594.8	656.8
595.209	670.4
595.618	651
596.028	662.2
596.437	655.4
596.847	658.4
597.256	671.2
597.687	667
598.097	670.2
598.507	655.6
598.917	672.8
599.327	674.6
599.736	667.2
600.146	682.4
600.556	667
600.988	683
601.398	667.6
601.808	680.2
602.219	652.2
602.629	660.4
603.039	664.8
603.45	705.8
603.86	671.2
604.271	678.4
604.703	666.2
605.114	661
605.525	665.6
605.935	661.2
606.346	694.2
606.757	674.6
607.168	668.8
607.579	651.8
607.99	687.6
608.402	668.2
608.813	677.6
609.224	668
609.636	660
610.047	656
610.48	676
610.892	669.6
611.303	678.8
611.715	663.8
612.127	659.6
612.539	676.4
612.95	669
613.362	649
613.774	662
614.186	658.6
614.599	655
615.011	677.8
615.423	670.4
615.835	657
616.248	653
616.66	670
617.073	658.2
617.485	662.2
617.898	681.6
618.311	661.4
618.723	667.6
619.136	694.8
619.549	692.2
619.962	691.8
620.375	660.6
620.788	672.8
621.201	662.2
621.614	672
622.028	659.2
622.441	673.6
622.854	681.8
623.268	653.4
623.681	666.8
624.095	665.8
624.509	670.2
624.922	673
625.336	656.2
625.728	661.4
626.142	676.6
626.556	690
626.97	671
627.384	654
627.799	665.6
628.213	669.4
628.627	655.8
629.041	654
629.456	655.2
629.87	667.8
630.285	675.8
630.699	675.4
631.093	661.4
631.507	669
631.922	668
632.337	680.2
632.752	650
633.167	672.8
633.582	664.6
633.997	661.8
634.412	660.2
634.806	667.8
635.221	656.8
635.637	675.2
636.052	650.8
636.468	670.8
636.883	691.2
637.299	665.4
637.715	653.8
638.109	660.2
638.525	656.2
638.941	670
639.357	671
639.773	676.4
640.189	660
640.584	665
641	667
641.416	661.8
641.832	656.2
642.249	662.4
642.665	663.6
643.06	671.8
643.477	677.2
643.894	651.4
644.31	654.6
644.727	668.8
645.123	673.2
645.54	658.4
645.957	665.6
646.374	684.4
646.77	663.8
647.187	689.6
647.604	668
648.021	642.6
648.439	662
648.835	674.6
649.252	668.4
649.67	666.4
650.088	661.6
650.484	669
650.902	674
651.32	674.4
651.738	663.2
652.134	667.4
652.552	681.4
652.971	685.4
653.389	656.8
653.786	688.6
654.204	687.4
654.622	657.2
655.019	673.6
655.438	667.4
655.857	671.4
656.275	674
656.673	660
657.091	761.8
657.51	660.2
657.908	682.2
658.327	684
658.746	650.8
659.144	660
659.563	684.4
659.982	679.4
660.38	660.2
660.8	658.6
661.219	678.8
661.617	672.8
662.037	670.4
662.457	677
662.855	645.4
663.275	714.6
663.695	670
664.094	663.2
664.514	675.6
664.934	662
665.333	670.8
665.753	666.2
666.152	662
666.572	666.8
666.993	680.2
667.392	657.4
667.812	670.4
668.212	667.4
668.632	675.4
669.053	663
669.453	667
669.874	672.4
670.273	664.8
670.694	654.2
671.116	672.2
671.515	669.8
671.937	656
672.337	671.2
672.758	665.4
673.158	673.2
673.58	649.6
673.98	673.4
674.402	677
674.824	661.8
675.224	666
675.646	663.8
676.047	667.2
676.469	665.4
676.869	665.2
677.292	664.2
677.693	666.8
678.115	658.8
678.516	675.2
678.939	662.8
679.34	662.2
679.762	677.2
680.164	668.2
680.586	659.6
680.988	664.2
681.411	689.8
681.812	655.6
682.236	655.2
682.637	652.8
683.061	655.6
683.462	657.8
683.864	662.4
684.288	673.2
684.69	663.2
685.114	680.6
685.516	666
685.94	651
686.342	680.8
686.766	660.8
687.168	648.4
687.571	680.4
687.995	668
688.398	654.4
688.822	667.6
689.225	683.4
689.628	680.6
690.052	663.4
690.456	670.2
690.88	670.4
691.284	646.6
691.687	673.6
692.112	644
692.515	661.2
692.919	664
693.344	676.6
693.747	664.2
694.173	659.6
694.577	666.6
694.98	670.2
695.406	657.4
695.81	669.6
696.214	665.6
696.64	675.4
697.044	667.4
697.448	667.8
697.874	659.2
698.279	649.8
698.684	651.2
699.11	644.6
699.514	656.6
699.919	656.8
700.324	650.2
700.75	658.8
701.156	674.4
701.561	672.8
701.987	669.4
702.393	676.4
702.798	678.2
703.203	666.2
703.63	650.4
704.036	654.4
704.442	659.2
704.847	658.6
705.274	651.4
705.68	655.6
706.086	675.4
706.492	651
706.92	652.8
707.326	673
707.732	660.4
708.139	653.2
708.545	645.6
708.973	661.2
709.38	659.6
709.786	643.8
710.193	675
710.6	666
711.028	655.6
711.435	669.2
711.842	659.6
712.249	659
712.656	667
713.064	674.4
713.492	648.4
713.9	661.8
714.307	675.8
714.715	669.2
715.123	669.6
715.53	670
715.938	672
716.367	663.6
716.775	664.6
717.184	653.2
717.592	662.8
718	678.8
718.408	701.2
718.816	722
719.225	663.6
719.633	650.8
720.042	653.2
720.472	657.8
720.881	683
721.29	670.2
721.699	645
722.108	665
722.517	664.4
722.926	664
723.335	671
723.744	670.8
724.154	665.6
724.563	670.2
724.973	663.4
725.382	662
725.792	648.8
726.202	645.8
726.612	692
727.022	657.4
727.432	670.4
779.813	651.4
780.223	704.4
780.634	662.8
781.044	657.4
781.454	655.4
781.865	681.2
782.276	648.8
782.686	672.2
783.097	659.6
783.508	662
783.919	664
784.33	667.4
784.741	668
785.152	649.8
785.563	646.4
785.974	647
786.386	669.8
786.776	665.6
787.188	655.6
787.599	647
788.011	665.6
788.423	669.8
788.835	663.2
789.247	651.2
789.659	650.6
790.071	661.6
790.483	712.6
790.874	656.8
791.286	678.2
791.699	657.6
792.111	664.2
792.524	660.2
792.937	661.8
793.349	656.4
793.741	657
794.154	658
794.567	684.8
794.98	667.2
795.393	655.4
795.785	674.4
796.198	649.8
796.612	661.6
797.026	655.4
797.439	644
797.831	660.8
798.245	643.4
798.659	661.8
799.073	643
799.487	646.4
799.88	660.2
800.294	659.4
800.708	665.2
801.123	664.6
801.516	681.2
801.93	646
802.345	639
802.76	660
803.153	674.6
803.568	678.4
803.983	672
804.377	664.6
804.792	646.2
805.207	647
805.601	659.4
806.016	705.4
806.432	653
806.826	696.6
807.242	675.6
807.658	660.8
808.052	659.2
808.468	664.2
808.884	654.6
809.279	665.2
809.695	673.2
810.111	684.6
810.506	662.8
810.922	678.8
811.339	656.4
811.734	669.2
812.151	662.6
812.546	660.4
812.963	649.4
813.38	667.4
813.776	662.4
814.193	681.2
814.589	660.2
815.006	662.2
815.402	651.2
815.82	650
816.237	660
816.633	672
817.051	646.6
817.448	667.2
817.866	646.6
818.262	681.8
818.68	658.4
819.077	651.8
819.495	664.2
819.892	706.2
820.311	655.8
820.708	651
821.127	653.8
821.524	669.2
821.943	670.8
822.34	686
822.759	664.2
823.157	671.8
823.576	677
823.974	666.6
824.393	788.2
824.791	659
825.189	652.4
825.609	659.4
826.007	650.8
826.427	648.6
826.826	658.8
827.246	666.6
827.644	651.8
828.043	669.4
828.463	656.4
828.862	669.8
829.261	663.8
829.682	647.2
830.081	665.2
830.502	655.4
830.901	668.2
831.301	653.8
831.722	646
832.121	659.2
832.521	656.4
832.943	662.8
833.342	665.2
833.742	650.2
834.164	658
834.564	652.8
834.965	658.8
835.386	649.2
835.787	661.6
836.188	658.4
836.588	662.4
837.01	669
837.411	645.4
837.812	665.8
838.213	659.8
838.636	656.6
839.037	736.8
839.438	667.6
839.84	664.8
840.263	671.2
840.664	661.6
841.066	659.8
841.468	659.2
841.891	658.4
842.293	672.4
842.695	662.8
843.098	677.2
843.5	654.2
843.902	661.8
844.326	665.4
844.729	664.6
845.131	677.8
845.534	667
845.937	677.6
846.34	684.8
846.764	646.6
847.167	662.6
847.571	652.4
847.974	659.2
848.377	647.8
848.781	717
849.184	672.6
849.588	649.4
849.992	643.4
850.396	669.6
850.821	677
851.225	663.2
851.63	657
852.034	668.8
852.438	660.4
852.843	801.4
853.247	639.4
853.652	646.4
854.057	674.4
854.462	658
854.867	664.6
855.272	707.4
855.677	667.4
856.082	644.6
856.487	645
856.893	659.6
857.298	646.8
857.704	647.8
858.11	667.4
858.516	658.2
858.922	653.8
859.328	662.6
859.734	651.4
860.14	662.4
860.525	660
860.931	651.4
861.338	655
861.745	654.2
862.151	670.6
862.558	661.4
862.965	646
863.372	653.2
863.779	651.8
864.186	676.6
864.572	663.8
864.98	681.6
865.387	696
865.795	648.2
866.203	666.4
866.61	651
867.018	674.8
867.405	659
867.813	664
868.221	659.8
868.63	653.4
869.038	665.8
869.425	701.2
869.834	660.6
870.243	657.8
870.652	655
871.039	654
871.448	658.8
871.857	660.8
872.266	665.6
872.654	650
873.064	654.2
873.473	670.6
873.883	653
874.271	654.2
874.681	671.6
875.091	642.8
875.48	659.8
875.89	673.2
876.3	654.6
876.689	648.2
877.1	661.2
877.51	662.2
877.9	682.6
878.31	660.2
878.721	692
879.111	654.6
879.522	653.2
879.933	645
880.323	631.6
880.734	646.6
881.125	657.8
881.536	648.8
881.948	646.4
882.338	652.8
882.75	665.4
883.141	655.6
883.553	659
883.944	681.4
884.356	657.2
884.769	654.8
885.16	661.4
885.573	658
885.964	640.6
886.377	658.8
886.768	636.4
887.181	655
887.573	641.6
887.987	664.8
888.378	673.2
888.792	660
889.184	712.8
889.598	653.6
889.99	661
890.383	654.8
890.797	644.8
891.19	676.6
891.604	653
891.997	652.4
892.411	641
892.805	656
893.198	653.2
893.613	647
894.006	662.8
894.421	647.8
894.815	657.8
895.209	654.6
895.624	703.2
896.018	674.2
896.412	648.8
896.828	665.8
897.222	660.6
897.617	660
898.033	677.4
898.427	661.4
898.822	653.8
899.239	642.2
899.634	644.6
900.029	675
900.424	653.6
900.841	642.6
901.236	676.6
901.632	665.6
902.027	726
902.445	670.8
902.841	652.2
903.237	655.8
903.633	666.8
904.05	662.4
904.447	658.4
904.843	668.4
905.24	656.8
905.636	642.8
906.033	659.8
906.451	673
906.848	644
907.246	650
907.643	666.4
908.04	661.4
908.438	668.8
908.835	661.6
909.254	659.8
909.652	658.6
910.05	663.2
910.448	646.8
910.846	661.2
911.244	647.2
911.643	665.8
912.041	658
912.44	679
912.839	648
913.237	658.6
913.636	656.2
914.035	664.8
914.434	650.4
914.834	668.4
915.233	679.2
915.633	646
916.032	647
916.432	649.8
916.832	673.4
917.232	651.6
917.632	642.2
918.032	663
918.432	663.8
918.833	654.4
919.233	654.4
919.634	641.4
920.035	665.2
920.436	642.8
920.837	663.6
921.238	643.2
921.639	652.4
922.019	659.8
922.42	662
922.822	657.8
923.224	657.2
923.625	653.8
924.027	648.8
924.429	688.2
924.81	665.2
925.212	666.6
925.615	656.6
926.017	658.4
926.42	668.8
926.801	654
927.204	655
927.607	665.8
928.01	672
928.413	664.6
928.795	643.6
929.199	642
929.602	651.2
930.006	655
930.388	645
930.792	660
931.196	655.6
931.579	684.8
931.983	653.6
932.388	708.2
932.771	650.2
933.176	640.8
933.58	661.2
933.964	658
934.369	652.6
934.774	662.4
935.158	653.2
935.563	660.6
935.947	655
936.353	656
936.759	654
937.143	657.8
937.549	656.6
937.934	672.8
938.34	684
938.746	653.2
939.131	652.4
939.538	654.2
939.923	662.4
940.33	650
940.716	664
941.123	659.8
941.508	661.6
941.916	672
942.302	658.6
942.709	649
943.096	643.8
943.503	666.8
943.89	665.6
944.298	650
944.685	692
945.072	653.2
945.48	674.8
945.867	651.2
946.276	648.6
946.663	681.8
947.051	675
947.46	673.6
947.848	655.6
948.257	648.8
948.645	658.2
949.033	650.4
949.443	651.8
949.831	704.6
950.22	637.6
950.63	662
951.018	688.4
951.407	655
951.796	654
952.207	657.8
952.596	654.4
952.985	643.2
953.375	702.6
953.786	665.4
954.176	643.6
954.566	660.4
954.956	642.4
955.367	652.8
955.758	683.2
956.148	649.4
956.539	669
956.929	643.2
957.341	641.4
957.732	649.4
958.123	670.2
958.515	650.4
958.906	664.8
959.297	642.6
959.689	648.6
960.102	639.2
960.494	656.2
960.886	647.8
961.278	652
961.67	674
962.062	692.8
962.455	643.4
962.847	636
963.24	640
963.633	647.4
964.026	641.8
964.419	650.6
964.812	660.8
965.206	644.2
965.599	665
965.993	657.4
966.386	641.4
966.78	651.4
967.174	666.2
967.569	654
967.963	657.2
968.357	651.8
968.752	635.4
969.146	646
969.541	640.6
969.936	655.8
970.331	657.2
970.705	653.4
971.1	654.2
971.496	664.6
971.892	644.2
972.287	647.6
972.683	648
973.079	654.8
973.454	673
973.85	657.4
974.247	664.2
974.643	692.6
975.04	652.8
975.415	655.6
975.812	650.6
976.209	658.2
976.607	647.2
976.982	663.6
977.38	664.6
977.778	648.4
978.175	648.4
978.552	657.8
978.95	647.4
979.348	659
979.725	707.6
980.123	660
980.522	646.2
980.899	642
981.298	656.2
981.697	659
982.075	663
982.474	651
982.852	667.4
983.251	657
983.651	647.8
984.029	647.8
984.429	646.2
984.808	634.6
985.208	648.4
985.609	630.2
985.987	637.4
986.388	647.2
986.768	655.4
987.168	639.8
987.548	664.2
987.949	666.2
988.329	647
988.731	640.8
989.111	650.8
989.491	645.8
989.893	645.6
990.273	659.4
990.676	638.6
991.057	639
991.459	652
991.84	641.8
992.221	640.2
992.624	664.8
993.006	646
993.388	654
993.791	668.6
994.173	663.2
994.576	689
994.959	639.8
995.341	644.8
995.724	659.2
996.128	649
996.511	654.4
996.894	648.8
997.298	649.6
997.681	652
998.065	654
998.448	639.6
998.854	665.8
999.237	643.2
999.621	664
1000.01	669
1000.39	664
1000.8	640.8
1001.18	661.2
1001.56	657.4
1001.95	660
1002.33	658.4
1002.72	648.6
1003.13	648.4
1003.51	647.4
1003.9	650.6
1004.28	667.6
1004.67	641.6
1005.06	654.4
1005.44	694.8
1005.83	636.8
1006.21	654.4
1006.6	638.8
1006.99	674.6
1007.37	659
1007.76	652.2
1060.12	654.8
1060.51	652
1060.89	659.8
1061.28	660.6
1061.67	662.4
1062.06	657.8
1062.45	647
1062.83	649
1063.22	659.8
1063.61	696
1064	663.4
1064.39	657
1064.78	649.2
1065.14	656.8
1065.53	653.4
1065.92	658
1066.31	646.8
1066.7	653.8
1067.09	667
1067.46	662.6
1067.85	666.6
1068.24	649
1068.63	665.4
1069.02	646.2
1069.39	656
1069.78	641
1070.17	658.6
1070.57	643.6
1070.93	662.8
1071.33	637
1071.72	655.6
1072.11	648
1072.48	648.4
1072.87	655.2
1073.26	658
1073.64	641.8
1074.03	644.4
1074.4	646.6
1074.79	655.6
1075.19	656.4
1075.56	652
1075.95	656.2
1076.34	657.8
1076.72	647.6
1077.11	658.4
1077.48	667.2
1077.88	652.6
1078.25	656
1078.64	657.2
1079.02	662.6
1079.41	657.8
1079.78	646
1080.18	646.4
1080.55	725.6
1080.95	651.4
1081.32	653.2
1081.72	654.6
1082.09	651
1082.49	641
1082.86	653
1083.24	639.6
1083.63	641.2
1084.01	639.4
1084.38	658.4
1084.78	647
1085.16	654.8
1085.55	677.4
1085.93	673.4
1086.31	643.2
1086.7	679.8
1087.08	659.2
1087.46	649.8
1087.83	638.6
1088.23	659.4
1088.61	641.6
1088.99	655.8
1089.36	652
1089.76	648
1090.14	647.6
1090.52	651.6
1090.9	645
1091.27	657.8
1091.67	671.8
1092.05	661
1092.43	642.2
1092.81	663.4
1093.19	668.8
1093.57	648.4
1093.95	653.6
1094.35	658.2
1094.73	669.2
1095.11	639
1095.49	640
1095.87	659.2
1096.25	670.8
1096.63	653.8
1097.01	648.2
1097.39	656.2
1097.77	660.8
1098.15	649.8
1098.53	651.6
1098.91	642.4
1099.29	643.8
1099.68	670.6
1100.06	661.2
1100.44	650.6
1100.82	660.8
1101.18	662.4
1101.56	648.2
1101.95	643.6
1102.33	649.6
1102.71	649.2
1103.1	633
1103.48	638.2
1103.86	649
1104.22	664.6
1104.61	642.6
1104.99	650
1105.38	641.2
1105.76	659.6
1106.12	653.6
1106.51	691.2
1106.89	667.4
1107.26	655.6
1107.64	666.2
1108.03	645
1108.41	646
1108.78	650.6
1109.16	650.4
1109.55	665.8
1109.91	639.6
1110.3	629.4
1110.69	658.8
1111.05	643.4
1111.44	649.8
1111.8	644
1112.19	642.4
1112.58	659.4
1112.94	644.2
1113.33	644.8
1113.7	639.2
1114.09	646.6
1114.45	645.6
1114.84	645
1115.21	658.4
1115.6	642.6
1115.96	657.6
1116.35	657.8
1116.72	638.2
1117.11	650.6
1117.48	648.4
1117.85	649.8
1118.24	661
1118.6	655.8
1118.99	651.6
1119.36	652.4
1119.73	645.6
1120.12	652.2
1120.49	635.8
1120.86	660.8
1121.25	648.6
1121.62	640.6
1121.99	646.4
1122.38	654.6
1122.76	651.8
1123.13	643.6
1123.5	655.2
1123.89	663
1124.26	641.4
1124.63	651.8
1125	647
1125.4	640.6
1125.77	645
1126.14	627
1126.51	643.2
1126.88	652.2
1127.26	636.6
1127.63	622.6
1128.02	645.2
1128.4	643.2
1128.77	642.6
1129.14	644.2
1129.52	643
1129.89	650.4
1130.26	636
1130.64	636.4
1131.01	639
