#lambda/nm	C1
208.295	538
208.67	490
209.045	451.8
209.419	450.4
209.794	689.8
210.169	669.2
210.544	816
210.919	695
211.295	671.2
211.67	687.6
212.045	693.6
212.421	673.8
212.796	726.2
213.172	686.4
213.547	678
213.923	676.6
214.299	682.6
214.675	685.6
215.051	693.6
215.427	690.8
215.803	711
216.179	683
216.555	685.6
216.932	696.2
217.308	685.4
217.684	691.2
218.061	694.8
218.438	685.6
218.814	677
219.191	689.4
219.568	674.6
219.945	676.4
220.322	685.4
220.699	696
221.076	699.8
221.453	688.8
221.83	687.2
222.208	682.4
222.585	676.6
222.962	689.8
223.34	689.6
223.717	682
224.095	691.8
224.473	690.8
224.851	680.4
225.229	669
225.607	708.6
225.985	673.6
226.363	686
226.741	680.8
227.119	683.8
227.497	705
227.876	671
228.254	698.6
228.633	683.8
229.011	683.6
229.39	693
229.769	685
230.148	690
230.527	712.8
230.905	683.2
231.284	682.8
231.664	689.8
232.043	685.4
232.422	691.6
232.801	675.2
233.181	694
233.56	681.6
233.94	679
234.319	674.2
234.699	685
235.079	731.6
235.458	732.8
235.838	694
236.218	674.6
236.598	674.6
236.978	674
237.358	677.6
237.738	676.6
238.119	692
238.499	672.4
238.88	683.2
239.26	706.4
239.641	672.8
240.021	683
240.402	689.4
240.783	674.8
241.163	684.8
241.544	694.2
241.925	688
242.306	700.8
242.687	672.2
243.069	684.4
243.45	689.4
243.831	682.6
244.212	683.2
244.594	725
244.975	689
245.357	689.6
245.739	675
246.12	684.2
246.502	706.8
246.884	680
247.266	678.8
247.648	691.6
248.03	707
248.412	686.2
248.794	689.6
249.176	687.8
249.559	692.6
249.941	679.4
250.323	674.6
250.706	670.2
251.089	690.6
251.471	687.6
251.854	686.2
252.237	675.8
252.62	693.8
253.002	682.4
253.385	682.8
253.769	705.4
254.152	680
254.535	695.4
254.918	676.4
255.301	691.8
255.685	685.6
256.068	679.6
256.452	704.6
256.835	691
257.219	685.4
257.603	695.6
257.986	678.8
258.37	684.6
258.754	675.2
259.138	688
259.522	692.2
259.906	681.6
260.29	691.8
260.675	681.2
261.059	688.8
261.443	677.8
261.828	693.2
262.212	694.4
262.597	666.4
262.981	687.8
263.366	696.4
263.751	690.4
264.136	679
264.521	685.2
264.906	684.8
265.291	695.6
265.676	681.6
266.061	689.4
266.446	704.2
266.831	686.6
267.217	712.4
267.602	688.4
267.987	682.6
268.373	682.8
268.759	690.4
269.144	692
269.53	696
269.916	674.4
270.302	685.2
270.688	695.6
271.074	682.4
271.46	691.4
271.846	720.6
272.232	675
272.618	681.2
273.004	679.4
273.391	697.2
273.777	697.2
274.164	692.4
274.55	708.4
274.937	694.8
275.324	679.4
275.71	695.2
276.097	691.2
276.484	682.4
276.871	693.8
277.258	689.8
277.645	668.4
278.032	686.2
278.419	687
278.807	699.2
279.194	684.6
279.581	681.4
279.969	690
280.356	697
280.744	691.6
281.131	712.6
281.519	690.8
281.907	680.4
282.295	690.8
282.682	705.6
283.07	694.4
283.458	696.4
283.846	702.2
284.235	703.4
284.623	699
285.011	678.8
285.399	680
285.788	687.4
286.176	682
286.565	708.6
286.953	676.2
287.342	689.2
287.731	683.8
288.119	681.4
288.508	688
288.897	685.2
289.286	683.2
289.675	695.6
290.064	701
290.453	683.2
290.821	689
291.21	706.8
291.599	681.2
291.989	685.6
292.378	692
292.768	713.2
293.157	696.6
293.547	699.4
293.936	689.8
294.326	690.2
294.716	688.8
295.106	682.6
295.496	696.8
295.886	699.4
296.276	688.8
296.666	688.2
297.056	682.8
297.446	675.6
297.836	699.4
298.227	682.8
298.617	686
299.008	706
299.398	696
299.789	682.6
300.179	697.8
300.57	699.6
300.961	687.4
301.352	688.8
301.742	692.2
302.133	692.4
302.524	692.4
302.915	690.8
303.307	681.6
303.698	697.2
304.089	698.8
304.48	688.4
304.872	691.6
305.263	690.6
305.655	683.8
306.046	688.6
306.438	693.4
306.829	685.6
307.221	705.4
307.613	704
308.005	699
308.397	705.6
308.789	715.2
309.181	716
309.573	706
309.965	704.4
310.357	687.4
310.749	705
311.142	676.2
311.534	682.8
311.926	692.8
312.319	700.8
312.711	680.2
313.104	707.8
313.497	686.8
313.889	736.4
314.282	705.6
314.675	714.6
315.068	693.2
315.461	695.6
315.854	724.6
316.247	701.4
316.64	696.6
317.033	689.8
317.405	701.8
317.798	684
318.192	691
318.585	691
318.979	696.6
319.372	679.8
319.766	689.6
320.16	698.4
320.553	707.6
320.947	714
321.341	690.4
321.735	698
322.129	673.6
322.523	722.2
322.917	683.4
323.311	699.2
323.705	688.2
324.099	701.6
324.494	697.6
324.888	716.6
325.282	692.4
325.677	698.8
326.071	701.4
326.466	699
326.861	700.4
327.255	706.2
327.65	713.2
328.045	710.4
328.44	700.6
328.835	693.4
329.23	689.4
329.625	722.4
330.02	694
330.415	723.4
330.81	685
331.206	696.8
331.601	683
331.996	698.8
332.37	721.8
332.766	671.4
333.161	713.2
333.557	689.6
333.953	695.2
334.348	1183.8
334.744	695.4
335.14	681.4
335.536	681.8
335.932	713.2
336.328	687
336.724	705.4
337.12	687.8
337.516	694.8
337.913	699.8
338.309	700.8
338.705	684.6
339.102	694.8
339.498	678
339.895	703.6
340.291	691
340.688	698.2
341.085	682.4
341.481	689.2
341.878	687.8
342.275	715
342.672	680.6
343.069	688.8
343.466	676.2
343.842	695
344.239	683.8
344.636	686.8
345.033	681.2
345.431	678.4
345.828	688.8
346.225	681.8
346.623	724.6
347.02	691.6
347.418	701.6
347.816	709.2
348.213	673.4
348.611	694.8
349.009	673.8
349.407	704.8
349.805	673.4
350.203	673.6
350.601	696.8
350.999	680.6
351.397	754.8
351.795	685
352.193	695.8
352.57	691.2
352.969	708.2
353.367	669.6
353.766	669
354.164	679.8
354.563	691
354.961	683.8
355.36	685
355.759	686.4
356.158	677.4
356.557	676.8
356.956	670.8
357.355	670
357.754	690.2
358.153	703.2
358.552	718.8
358.951	675.4
359.35	693.2
359.75	680.2
360.149	675.4
360.527	658.2
360.926	672.6
361.326	685
361.726	681
362.125	666.6
362.525	688.2
362.925	681
363.325	688
363.724	676
364.124	671.8
364.524	681.6
364.924	676.4
365.324	697.8
365.725	661.4
366.125	684.2
366.525	688.6
366.904	666.4
367.304	662.6
367.705	698.2
368.105	699
368.506	683
368.906	673.8
369.307	684.8
369.708	691.8
370.108	668.4
370.509	692.4
370.91	670.4
371.311	680.6
371.712	682.8
372.113	673.4
372.514	667.2
372.894	676.4
373.295	675.8
373.696	696.2
374.097	696.2
374.499	720.4
374.9	680
375.301	668.4
375.703	685.6
376.105	664.4
376.506	686.4
376.908	691
377.309	681.4
377.711	675
378.113	677.6
378.493	680
378.895	671.6
379.297	689.8
379.699	670.4
380.102	688
380.504	682.2
380.906	669.8
381.308	709.4
381.71	681.2
382.113	693
382.515	669.4
382.918	690.4
383.299	667.4
383.701	695.4
384.104	682
384.507	663
384.909	676
385.312	676.4
385.715	662.2
386.118	683.2
386.521	669.6
386.924	694
387.327	671.4
387.709	657.6
388.112	665.8
388.515	684
388.918	678
389.322	682.8
389.725	668.4
390.129	705.6
390.532	679.8
390.936	666.8
391.339	674.8
391.743	690.6
392.125	671.8
392.529	686
392.933	692.6
393.337	684.4
393.74	676.8
394.144	684
394.548	678.2
394.953	671.6
395.357	692
395.761	677.2
396.144	684.2
396.548	676
396.952	682.2
397.357	683.2
397.761	676
398.166	676.2
398.57	679.6
398.975	666.6
399.379	684.4
399.763	736.2
400.168	680.8
400.572	684.8
400.977	666.2
401.382	701.6
401.787	694
402.192	692.8
402.597	699.2
403.002	668.4
403.386	699.2
403.791	699.2
404.197	676.4
404.602	681.2
405.007	671.8
405.413	686.6
405.818	675.8
406.224	667.4
406.608	674.2
407.014	669
407.42	703.2
407.825	672.4
408.231	694.6
408.637	684.4
409.043	694.4
409.449	681.2
409.834	679
410.24	681.4
410.646	696
411.052	700
411.458	680.6
411.865	691.4
412.271	696.2
412.677	685.6
413.062	699.8
413.469	679
413.875	703.8
414.282	697.6
414.689	684
415.095	693.6
415.502	683
415.888	678.2
416.294	671.2
416.701	730
417.108	675.2
417.515	691.6
417.923	676.8
418.33	708.8
418.715	696.8
419.123	687.2
419.53	675.2
419.937	677.2
420.345	701.8
420.752	676.2
421.16	706.4
421.546	682.2
421.953	691.4
422.361	669.8
422.769	682.8
423.177	676
423.585	710.4
423.992	708.4
424.379	703.4
424.787	697.8
425.195	704
425.603	686.2
426.011	699.4
426.419	697
426.806	687.4
427.214	685
427.623	700.8
428.031	700.2
428.44	685.4
428.848	698.8
429.235	704.6
429.644	686.8
430.053	688
430.461	695
430.87	714.8
431.279	696
431.666	675.4
432.075	684
432.484	688.2
432.893	681
433.302	703.2
433.711	738.8
434.099	696.4
434.508	681.6
434.918	673.8
435.327	692
435.737	686
436.125	683
436.534	682.8
436.944	695
437.353	690.2
437.763	718.6
438.173	670.4
438.561	690.6
438.971	661
439.381	675.4
439.791	688
440.201	662
440.589	690.2
440.999	691.4
441.409	673.8
441.819	666.4
442.23	694.8
442.619	699.4
443.029	671
443.439	678.2
443.85	691.8
444.26	699.2
444.649	684.2
445.06	689.2
445.471	672.8
445.881	685.8
446.292	691.8
446.682	704.8
447.092	666.2
447.503	738.8
447.914	681
448.325	669.8
448.715	676.4
449.126	666.8
449.537	677.2
449.948	680.2
450.338	678.4
450.75	686.2
451.161	685
451.572	687
451.984	670
452.374	663.6
452.786	671.2
453.197	681.4
453.609	684.6
453.999	668.8
454.411	676
454.823	678
455.235	674.6
455.647	664.4
456.037	679.4
456.449	663.8
456.862	677.6
457.274	683.8
457.665	661.6
458.077	688
458.489	714.2
458.902	675.4
459.293	681.8
459.705	669.8
460.118	675.4
460.53	672.8
460.921	673.2
461.334	682.4
461.747	679.4
462.16	690.8
462.551	687.2
462.964	683
463.377	666
463.79	672.4
464.182	678.8
464.595	680
465.008	676.8
465.421	674.2
465.813	666.8
466.226	680
466.64	674
467.053	721.8
467.445	676.8
467.859	689.6
468.272	675.6
468.686	683.2
469.078	667.4
469.492	662.8
469.906	679.6
470.298	680.4
470.712	667.6
471.126	739
471.54	658.8
471.933	665.4
472.347	673.8
472.761	677.6
473.175	661.4
473.568	671.4
473.982	662.2
474.397	672.4
474.79	684.6
475.204	682.6
475.619	663.2
476.033	668.8
476.426	665.6
476.841	662.8
477.256	702.6
477.649	667.8
478.064	663.8
478.479	659.6
478.872	666
479.287	652
479.702	657.6
480.118	661.6
480.511	668.4
480.927	667.6
481.342	658.2
481.736	663.8
482.151	664.2
482.566	677
482.96	668.8
483.376	682.6
483.792	659.2
484.186	672.6
484.602	658
485.017	666.2
485.412	672.4
485.827	682.8
486.243	677.4
486.638	694.6
487.054	683.2
487.47	682.8
487.865	671.8
488.281	670
488.697	666.6
489.092	667
489.508	665
489.925	680
490.32	660.8
490.736	683
491.153	672.4
491.548	673.4
491.964	692.4
492.381	661.8
492.776	682.4
493.193	677
493.61	675.2
494.006	671.2
494.422	676.2
494.84	669.8
495.235	681.4
495.652	674.4
496.069	674.8
496.465	667.6
496.883	682.2
497.3	703.6
497.696	668.4
498.113	681
498.509	656.6
498.927	653.4
499.344	657
499.741	663.8
500.158	673.2
500.576	687
500.973	682
501.39	660
501.787	665
502.205	680
502.623	662.6
503.02	655.8
503.438	662
503.856	671.8
504.253	671.2
504.671	671
505.068	668.2
505.486	663.4
505.905	697.6
506.302	673.4
506.72	678.6
507.118	654.8
507.536	677.8
507.955	677.2
508.352	672.6
508.771	671.2
509.169	678
509.587	665.6
510.006	673.4
510.404	659
510.823	657.6
511.221	669.6
511.64	664.6
512.038	684.6
512.457	665.4
512.877	672.8
513.275	668
513.694	667.8
514.092	666
514.512	673.4
514.91	664.8
515.33	676.8
515.749	670.2
516.148	680.2
516.568	679
516.966	664.4
517.386	662.6
517.785	670
518.205	662.8
518.603	669.8
519.024	671.8
519.444	669.4
519.843	674.8
520.263	694.2
520.662	674.4
521.082	666.2
521.481	664.6
521.902	665.8
522.301	675.4
522.722	677.4
523.121	671
523.542	666.8
523.963	669.6
524.362	670.2
524.783	674.8
525.183	667
525.604	672.2
526.003	657.6
526.425	661.6
526.824	671.4
527.246	677.8
527.646	677
528.067	669.8
528.467	665.6
528.888	675.2
529.289	666
529.71	667.4
530.11	667.8
530.532	671.4
530.932	664.6
531.354	659
531.755	704.8
532.176	677.6
532.577	663.8
532.999	667.2
533.4	657.4
533.822	669.4
534.223	671
534.645	661
535.046	670
535.468	675.6
535.869	682
536.292	675
536.693	706.6
537.115	668.4
537.516	667.4
537.939	664.8
538.34	689.4
538.742	685.4
539.165	669
539.566	675
539.989	660.4
540.391	664.6
540.814	668.8
541.216	672.4
541.639	666.6
542.041	680.8
542.464	659.4
542.866	663.2
543.268	658.6
543.691	677.4
544.093	678
544.517	690.6
544.919	662
545.343	688.8
545.745	651
546.147	675
546.571	659.2
546.974	658.4
547.398	668.6
547.8	673.4
548.224	665.6
548.627	658.4
549.03	675.6
549.454	658.6
549.857	656.4
550.281	656.2
550.684	657.2
551.087	680
551.512	678
551.915	671.2
552.34	666.4
552.743	659.8
553.146	674.8
553.571	665.6
553.975	697
554.399	651
554.803	725.8
555.207	662.8
555.632	654
556.036	671.2
556.461	646.6
556.865	670.2
557.268	666.4
557.694	659
558.098	670
558.502	670
558.927	657.6
559.332	668.6
559.736	663.4
560.162	677.8
560.566	661.8
560.992	665.6
561.396	662.8
561.801	663
562.227	667.2
562.631	664
563.036	656.4
563.462	679
563.867	676
564.272	658
564.698	677.8
565.103	650.8
565.508	687.2
565.935	667
566.34	659.4
566.745	679
567.172	663.2
567.577	684.4
567.982	682.8
568.409	672.8
568.815	659.4
569.22	664.8
569.626	674.6
570.053	661.8
570.459	661.4
570.865	673.6
571.292	664
571.698	679.8
572.104	646.8
572.531	659.6
572.937	671.6
573.343	662.2
573.75	668
574.177	661.8
574.583	678.6
574.99	660
575.396	678
575.824	664.8
576.231	671.2
576.637	664.2
577.065	692.8
577.472	657.6
577.879	658.8
578.286	682.2
578.714	666.2
579.121	663.6
579.528	676.2
579.935	672.8
580.364	653
580.771	646.4
581.178	653.2
581.585	673
582.014	673.4
582.421	666.4
582.829	663.8
583.236	668.4
583.644	656
584.073	657.8
584.481	661.8
584.889	653.6
585.296	670.2
585.726	658.8
586.134	660.6
586.542	660
586.95	684.8
587.358	649.2
587.787	659.8
588.196	648.8
588.604	660.8
589.012	661
589.421	654.8
589.851	656.4
590.259	676.2
590.668	659.6
591.076	707.6
591.485	644.4
591.894	664.8
592.324	687.4
592.733	676.4
593.142	648
593.551	664.8
593.96	670.4
594.369	656.4
594.8	653.8
595.209	666.8
595.618	645.2
596.028	664.6
596.437	645.4
596.847	664.4
597.256	662.6
597.687	674.4
598.097	673.2
598.507	654.2
598.917	668.6
599.327	670
599.736	664.6
600.146	676.6
600.556	668.4
600.988	677
601.398	666.6
601.808	674.4
602.219	648.6
602.629	670
603.039	663.8
603.45	689.4
603.86	668.4
604.271	687.6
604.703	663.8
605.114	668.2
605.525	670.2
605.935	671.6
606.346	693.8
606.757	665.4
607.168	663.4
607.579	652.8
607.99	674
608.402	667.8
608.813	670.4
609.224	663.4
609.636	658
610.047	654.4
610.48	656.6
610.892	673.2
611.303	671.4
611.715	666.2
612.127	660.2
612.539	654.8
612.95	656.4
613.362	653.6
613.774	654
614.186	653
614.599	661.6
615.011	670
615.423	665
615.835	659.6
616.248	645.2
616.66	660.6
617.073	659.2
617.485	669.4
617.898	672
618.311	666.2
618.723	660.2
619.136	694.6
619.549	682.6
619.962	690.8
620.375	654
620.788	667
621.201	661.2
621.614	661
622.028	667
622.441	662.8
622.854	687.4
623.268	654.6
623.681	663
624.095	670.6
624.509	678.4
624.922	672.8
625.336	653.4
625.728	663
626.142	668.4
626.556	684.4
626.97	668.6
627.384	663.2
627.799	662.2
628.213	667.8
628.627	667
629.041	659
629.456	664.6
629.87	667.4
630.285	677.6
630.699	672.6
631.093	657.8
631.507	670
631.922	664.8
632.337	677.6
632.752	653.6
633.167	665.6
633.582	659
633.997	657.6
634.412	653.8
634.806	655.2
635.221	657.4
635.637	674.2
636.052	650
636.468	669.6
636.883	680.6
637.299	663.6
637.715	652.2
638.109	670
638.525	644.4
638.941	678
639.357	671.6
639.773	678.6
640.189	653.6
640.584	664.2
641	670
641.416	651
641.832	658.6
642.249	661
642.665	653.4
643.06	669
643.477	683.2
643.894	648.6
644.31	661.6
644.727	669.4
645.123	660.4
645.54	655.4
645.957	663.6
646.374	675.4
646.77	664.8
647.187	694
647.604	662.4
648.021	651.4
648.439	653.4
648.835	667
649.252	663.8
649.67	655.6
650.088	669.4
650.484	665
650.902	666
651.32	663.4
651.738	657
652.134	666.6
652.552	682.4
652.971	669.4
653.389	659.2
653.786	676.4
654.204	678
654.622	657.8
655.019	659.2
655.438	656
655.857	667.6
656.275	656.2
656.673	654.4
657.091	737.6
657.51	660.8
657.908	672.2
658.327	680.2
658.746	659.2
659.144	660.6
659.563	675.4
659.982	672
660.38	657.4
660.8	655
661.219	673.8
661.617	665.8
662.037	664.6
662.457	669.6
662.855	651.4
663.275	698.8
663.695	667.2
664.094	652.8
664.514	663.4
664.934	652.6
665.333	666.8
665.753	646.2
666.152	648.8
666.572	655.2
666.993	679
667.392	657.4
667.812	658.6
668.212	652.6
668.632	669.2
669.053	665
669.453	665.2
669.874	659.6
670.273	665.4
670.694	645.6
671.116	671.8
671.515	663.4
671.937	668
672.337	648.6
672.758	652.4
673.158	665.2
673.58	640.4
673.98	660
674.402	674.2
674.824	650.4
675.224	657
675.646	645.4
676.047	653
676.469	650.4
676.869	669.6
677.292	662.4
677.693	654.8
678.115	650
678.516	663
678.939	657.8
679.34	659.8
679.762	671.8
680.164	664.6
680.586	644.6
680.988	667.4
681.411	695.2
681.812	659.2
682.236	656.2
682.637	644
683.061	647.6
683.462	666.6
683.864	650.6
684.288	665.8
684.69	644.6
685.114	671.2
685.516	670.8
685.94	650.8
686.342	667.4
686.766	648
687.168	654.2
687.571	672.8
687.995	664.8
688.398	650.2
688.822	653.4
689.225	668.6
689.628	669.6
690.052	654.6
690.456	668.4
690.88	656.6
691.284	651.8
691.687	668.8
692.112	636.8
692.515	653.6
692.919	651.4
693.344	657
693.747	665.6
694.173	655
694.577	670.4
694.98	658.8
695.406	657
695.81	660.8
696.214	664.8
696.64	658.4
697.044	667
697.448	664.6
697.874	667.6
698.279	651.8
698.684	639.8
699.11	654
699.514	660
699.919	661.6
700.324	647.6
700.75	665
701.156	653
701.561	676.6
701.987	670.8
702.393	672
702.798	681.4
703.203	663.4
703.63	657.2
704.036	652.2
704.442	665.8
704.847	652.2
705.274	657.8
705.68	661.4
706.086	671.2
706.492	644.4
706.92	656.6
707.326	669.4
707.732	659.4
708.139	653.6
708.545	656.2
708.973	649.6
709.38	663.6
709.786	648.8
710.193	670.4
710.6	671
711.028	648.2
711.435	658.2
711.842	660
712.249	652.6
712.656	651.2
713.064	666.4
713.492	653.2
713.9	658.6
714.307	663.8
714.715	656.6
715.123	663
715.53	655.8
715.938	676.4
716.367	660.2
716.775	651
717.184	663.8
717.592	654.2
718	669.2
718.408	693.6
718.816	715.2
719.225	656.6
719.633	666.6
720.042	650.4
720.472	662.6
720.881	685.4
721.29	669.8
721.699	644.8
722.108	668
722.517	658.2
722.926	660.8
723.335	665.2
723.744	660.8
724.154	658
724.563	664
724.973	668.2
725.382	656.2
725.792	655.2
726.202	655
726.612	681.6
727.022	655
727.432	657.8
779.813	650
780.223	708.8
780.634	655
781.044	648.4
781.454	659.8
781.865	676
782.276	644.6
782.686	670
783.097	656.2
783.508	660.4
783.919	658.4
784.33	674.8
784.741	676.8
785.152	658.6
785.563	641.2
785.974	649.6
786.386	668
786.776	652.6
787.188	661.2
787.599	641.8
788.011	662
788.423	659
788.835	649.6
789.247	637.8
789.659	654
790.071	654.4
790.483	704
790.874	660.6
791.286	670.4
791.699	656.8
792.111	656.8
792.524	660
792.937	655
793.349	644.4
793.741	649.4
794.154	650
794.567	680.2
794.98	663.8
795.393	647.2
795.785	672.4
796.198	649.6
796.612	664.2
797.026	652
797.439	639.2
797.831	660.6
798.245	655.2
798.659	662
799.073	652.2
799.487	641
799.88	664
800.294	652.6
800.708	666.8
801.123	658
801.516	688.4
801.93	645.4
802.345	636.2
802.76	656.4
803.153	669.4
803.568	669.2
803.983	667.6
804.377	658.4
804.792	644
805.207	643.2
805.601	651.2
806.016	692.2
806.432	649.4
806.826	684.6
807.242	669
807.658	662.4
808.052	653
808.468	643.4
808.884	641.8
809.279	660.6
809.695	667.4
810.111	685.2
810.506	660.6
810.922	682
811.339	650.6
811.734	662.4
812.151	646.8
812.546	645.8
812.963	650.4
813.38	670.2
813.776	654.4
814.193	676.6
814.589	648
815.006	660.6
815.402	652
815.82	645.2
816.237	655.2
816.633	657.2
817.051	654.4
817.448	663
817.866	643.4
818.262	682
818.68	648.4
819.077	646
819.495	648.6
819.892	701.2
820.311	647
820.708	645.8
821.127	644.8
821.524	665
821.943	662.6
822.34	670.6
822.759	657.2
823.157	655.8
823.576	673.8
823.974	664.4
824.393	783.2
824.791	657.6
825.189	648.2
825.609	652
826.007	653.8
826.427	645.6
826.826	651.6
827.246	662
827.644	641.2
828.043	664.6
828.463	642
828.862	666
829.261	648.2
829.682	638.2
830.081	649.4
830.502	652.4
830.901	645.4
831.301	647.6
831.722	640.8
832.121	651.8
832.521	642.8
832.943	651
833.342	652.4
833.742	636.4
834.164	648.8
834.564	647.2
834.965	653
835.386	650.8
835.787	651.6
836.188	654.8
836.588	656.2
837.01	657.4
837.411	648.6
837.812	664
838.213	662
838.636	649
839.037	732.8
839.438	662.2
839.84	658.2
840.263	666.4
840.664	666.8
841.066	654
841.468	662.2
841.891	656.2
842.293	667.6
842.695	660.2
843.098	656
843.5	651
843.902	660
844.326	656.4
844.729	649.2
845.131	667.4
845.534	653.8
845.937	666
846.34	671.6
846.764	634.4
847.167	658.4
847.571	646.4
847.974	655.2
848.377	663.8
848.781	704.8
849.184	669
849.588	651.8
849.992	649.8
850.396	651.6
850.821	676.8
851.225	662.4
851.63	647.8
852.034	671
852.438	654.2
852.843	708.4
853.247	639
853.652	643.2
854.057	671.4
854.462	653.8
854.867	663.4
855.272	683.8
855.677	659.6
856.082	656.4
856.487	643.2
856.893	662.4
857.298	646.6
857.704	648.8
858.11	668
858.516	669.6
858.922	655.8
859.328	662.4
859.734	660.8
860.14	660.8
860.525	655.4
860.931	657.4
861.338	651.4
861.745	661.2
862.151	662.8
862.558	652.4
862.965	652.2
863.372	649.6
863.779	649.2
864.186	676.8
864.572	649
864.98	676.2
865.387	686
865.795	645.6
866.203	662.2
866.61	647.8
867.018	667.2
867.405	661.2
867.813	657.2
868.221	653.6
868.63	651.8
869.038	661
869.425	693.8
869.834	656.4
870.243	656
870.652	647.8
871.039	644.2
871.448	649
871.857	665.4
872.266	650.8
872.654	668.4
873.064	648.4
873.473	668.4
873.883	645.8
874.271	641.4
874.681	668.2
875.091	636.6
875.48	666.4
875.89	678.2
876.3	648
876.689	640
877.1	648
877.51	648.6
877.9	673.6
878.31	654.4
878.721	690.6
879.111	663.2
879.522	649.8
879.933	643.8
880.323	640.2
880.734	653.8
881.125	664
881.536	643.2
881.948	633.8
882.338	652.2
882.75	664.8
883.141	650.6
883.553	657.2
883.944	685.6
884.356	666.4
884.769	656.2
885.16	657.8
885.573	651.8
885.964	644.8
886.377	655
886.768	645.6
887.181	651.2
887.573	641.6
887.987	659
888.378	669.4
888.792	656.8
889.184	709.4
889.598	645.8
889.99	660.8
890.383	650.4
890.797	641.6
891.19	657.8
891.604	653.2
891.997	644.6
892.411	649.8
892.805	644.4
893.198	652.2
893.613	636.6
894.006	653.2
894.421	649
894.815	650.2
895.209	648.2
895.624	700.2
896.018	684.4
896.412	653.6
896.828	654.6
897.222	648.4
897.617	652.4
898.033	673
898.427	654.4
898.822	650.4
899.239	640.6
899.634	647.2
900.029	676
900.424	649.8
900.841	639.4
901.236	653.2
901.632	661
902.027	720.8
902.445	663.4
902.841	655.8
903.237	652
903.633	669.8
904.05	658.8
904.447	651.2
904.843	662.2
905.24	648.2
905.636	632.2
906.033	647.8
906.451	671.6
906.848	644.8
907.246	646.2
907.643	656.8
908.04	660.8
908.438	666
908.835	655.6
909.254	648.2
909.652	642.6
910.05	647
910.448	640
910.846	657
911.244	639
911.643	649.8
912.041	648.4
912.44	662
912.839	647.2
913.237	649.2
913.636	648.2
914.035	657
914.434	647.2
914.834	670.8
915.233	669.8
915.633	646.8
916.032	651
916.432	644
916.832	666.2
917.232	655.2
917.632	642.8
918.032	652.8
918.432	648.8
918.833	646.6
919.233	648.4
919.634	640.4
920.035	659.8
920.436	637.2
920.837	660.2
921.238	645
921.639	647
922.019	646.2
922.42	648.6
922.822	652.8
923.224	658
923.625	646
924.027	652.8
924.429	673.4
924.81	656.6
925.212	660.2
925.615	648.4
926.017	645.4
926.42	661.8
926.801	661.6
927.204	654
927.607	655
928.01	667.2
928.413	649
928.795	632.8
929.199	642
929.602	642.8
930.006	640.8
930.388	648
930.792	655.8
931.196	646.4
931.579	688
931.983	643
932.388	699.6
932.771	643.4
933.176	637
933.58	659
933.964	651.8
934.369	641.2
934.774	656.8
935.158	651.2
935.563	644.8
935.947	659.8
936.353	650
936.759	650.4
937.143	648
937.549	653.2
937.934	666
938.34	675.8
938.746	642.6
939.131	642.6
939.538	637
939.923	652
940.33	646.6
940.716	652.8
941.123	646.8
941.508	649.4
941.916	667.6
942.302	650.8
942.709	630
943.096	648.4
943.503	657.6
943.89	648.4
944.298	633.4
944.685	672.8
945.072	641.8
945.48	661.2
945.867	642.8
946.276	644.4
946.663	672.6
947.051	667.2
947.46	659.6
947.848	657.2
948.257	650
948.645	656.2
949.033	643.4
949.443	640.2
949.831	692.8
950.22	636
950.63	651.6
951.018	680.2
951.407	655.2
951.796	648
952.207	661.6
952.596	665.6
952.985	641.2
953.375	704
953.786	651.2
954.176	642.4
954.566	655.6
954.956	641.4
955.367	649.4
955.758	667.8
956.148	642.6
956.539	658.8
956.929	643.4
957.341	639
957.732	649.4
958.123	657.4
958.515	631.4
958.906	657.4
959.297	646.4
959.689	640
960.102	640.4
960.494	653.2
960.886	648
961.278	649
961.67	683.2
962.062	690.2
962.455	650.6
962.847	637.2
963.24	649.8
963.633	658.2
964.026	636.2
964.419	653.6
964.812	657.4
965.206	647
965.599	659.4
965.993	657.2
966.386	651.6
966.78	666
967.174	659.8
967.569	642.2
967.963	645.6
968.357	637.8
968.752	642.4
969.146	652.2
969.541	645
969.936	640.2
970.331	651.6
970.705	651.6
971.1	641.6
971.496	663
971.892	647.8
972.287	642.4
972.683	662.2
973.079	641
973.454	664.8
973.85	651
974.247	654.4
974.643	679.6
975.04	651
975.415	645.6
975.812	641.2
976.209	642.2
976.607	641.8
976.982	663.2
977.38	679
977.778	645.2
978.175	653.6
978.552	657
978.95	649.8
979.348	657
979.725	701
980.123	640.4
980.522	644.6
980.899	651.6
981.298	644.8
981.697	655.8
982.075	644.6
982.474	638.6
982.852	653.2
983.251	648.8
983.651	642
984.029	657.6
984.429	649
984.808	637
985.208	640.8
985.609	646
985.987	636.4
986.388	642.4
986.768	656.4
987.168	644.6
987.548	661.8
987.949	658.6
988.329	655.8
988.731	630.2
989.111	654.4
989.491	653
989.893	649.6
990.273	666.6
990.676	643.6
991.057	634.6
991.459	647.4
991.84	648.2
992.221	641.2
992.624	669.6
993.006	651.6
993.388	648
993.791	655.8
994.173	657.6
994.576	689.2
994.959	635
995.341	648.8
995.724	655.6
996.128	647.4
996.511	654.6
996.894	649.4
997.298	647.4
997.681	654.6
998.065	644.6
998.448	643.4
998.854	660.6
999.237	648.8
999.621	653.2
1000.01	665.4
1000.39	647.8
1000.8	649.6
1001.18	653.2
1001.56	659
1001.95	651.4
1002.33	656.8
1002.72	651.8
1003.13	648.2
1003.51	641.8
1003.9	639.4
1004.28	676.2
1004.67	641.6
1005.06	645.4
1005.44	687.2
1005.83	636
1006.21	641.6
1006.6	641.4
1006.99	662.6
1007.37	653.6
1007.76	649.8
1060.12	642.8
1060.51	642.8
1060.89	654.4
1061.28	654
1061.67	665.2
1062.06	649.6
1062.45	651.6
1062.83	647
1063.22	659.8
1063.61	695.4
1064	654.6
1064.39	651.6
1064.78	644
1065.14	657.2
1065.53	650.8
1065.92	647.8
1066.31	639.4
1066.7	655.6
1067.09	661.2
1067.46	661.4
1067.85	656.8
1068.24	636.6
1068.63	651.2
1069.02	641
1069.39	648
1069.78	644.2
1070.17	654.2
1070.57	636.8
1070.93	647.4
1071.33	643.4
1071.72	646.8
1072.11	637.8
1072.48	632.8
1072.87	643.2
1073.26	641
1073.64	643.4
1074.03	640.4
1074.4	642.8
1074.79	641.6
1075.19	646.2
1075.56	648.2
1075.95	652.8
1076.34	639
1076.72	644.8
1077.11	647.2
1077.48	660
1077.88	643.8
1078.25	647
1078.64	660.6
1079.02	648.4
1079.41	646.8
1079.78	644.2
1080.18	641
1080.55	712.2
1080.95	642.2
1081.32	638
1081.72	644.4
1082.09	636.8
1082.49	639.6
1082.86	641.2
1083.24	641
1083.63	625.2
1084.01	651.2
1084.38	656.2
1084.78	637.2
1085.16	659.4
1085.55	656.4
1085.93	662.8
1086.31	634
1086.7	677.8
1087.08	645.2
1087.46	643.6
1087.83	634.4
1088.23	663.6
1088.61	647
1088.99	653
1089.36	640.6
1089.76	646.6
1090.14	644.2
1090.52	643.4
1090.9	640.4
1091.27	646.8
1091.67	667.4
1092.05	641
1092.43	641
1092.81	657.8
1093.19	651
1093.57	632.6
1093.95	637.4
1094.35	654
1094.73	654.8
1095.11	632.8
1095.49	645.6
1095.87	646.2
1096.25	657.6
1096.63	656.6
1097.01	645
1097.39	648
1097.77	646.4
1098.15	644
1098.53	641.6
1098.91	645.6
1099.29	640.8
1099.68	665.2
1100.06	658
1100.44	645.4
1100.82	651
1101.18	664.4
1101.56	642.4
1101.95	648.2
1102.33	644.6
1102.71	649.2
1103.1	629.2
1103.48	628.6
1103.86	638
1104.22	654
1104.61	652.6
1104.99	639
1105.38	641.6
1105.76	652.6
1106.12	641.6
1106.51	678.4
1106.89	655.6
1107.26	648.2
1107.64	657.4
1108.03	639.6
1108.41	657.6
1108.78	647.8
1109.16	651
1109.55	665.4
1109.91	632
1110.3	630.8
1110.69	647.6
1111.05	637.6
1111.44	645.2
1111.8	650.8
1112.19	655.8
1112.58	657.6
1112.94	642.4
1113.33	635.6
1113.7	636.6
1114.09	647.2
1114.45	630.8
1114.84	645.8
1115.21	653
1115.6	642
1115.96	657.6
1116.35	654.4
1116.72	635.2
1117.11	642
1117.48	647
1117.85	640.2
1118.24	659.2
1118.6	648
1118.99	645
1119.36	659.4
1119.73	653.6
1120.12	649.2
1120.49	634
1120.86	654.2
1121.25	651.4
1121.62	634.8
1121.99	636.8
1122.38	655
1122.76	646.2
1123.13	647.2
1123.5	647.8
1123.89	653.2
1124.26	638.6
1124.63	643.8
1125	652.4
1125.4	637.4
1125.77	635.8
1126.14	631
1126.51	646.6
1126.88	652.2
1127.26	644
1127.63	625.8
1128.02	645.8
1128.4	641.8
1128.77	650.4
1129.14	648.4
1129.52	657.8
1129.89	648.6
1130.26	629.6
1130.64	630.6
1131.01	639.4
