#lambda/nm	C1
208.295	537.4
208.67	491
209.045	456.8
209.419	451.2
209.794	691
210.169	672.6
210.544	815.2
210.919	699.2
211.295	688.2
211.67	686.2
212.045	685.6
212.421	680.4
212.796	730
213.172	683.8
213.547	682.8
213.923	680.2
214.299	679.4
214.675	697.8
215.051	684.2
215.427	696.4
215.803	706.8
216.179	696.6
216.555	681.6
216.932	698.4
217.308	685.2
217.684	684.4
218.061	688.6
218.438	682.2
218.814	680.4
219.191	693.8
219.568	682
219.945	676
220.322	692.2
220.699	696.8
221.076	702.4
221.453	687.4
221.83	676.8
222.208	676.4
222.585	684.6
222.962	681.2
223.34	693.2
223.717	684
224.095	692.2
224.473	690.2
224.851	685.8
225.229	681.2
225.607	701.6
225.985	677.4
226.363	686.2
226.741	681
227.119	685.4
227.497	699.6
227.876	666.8
228.254	686
228.633	693
229.011	689.6
229.39	691.8
229.769	686.4
230.148	693.6
230.527	706.2
230.905	681.4
231.284	682.6
231.664	682.8
232.043	699
232.422	694.2
232.801	674.6
233.181	698
233.56	679.2
233.94	679
234.319	669.6
234.699	666.6
235.079	735.4
235.458	728.8
235.838	705.8
236.218	675.4
236.598	674
236.978	676
237.358	678.4
237.738	673
238.119	692.4
238.499	671
238.88	688.6
239.26	701.6
239.641	677.4
240.021	678
240.402	681.8
240.783	692.6
241.163	679.6
241.544	683.2
241.925	696.4
242.306	700.6
242.687	682.6
243.069	683.8
243.45	689.6
243.831	678
244.212	690
244.594	718.2
244.975	697.6
245.357	689.2
245.739	680.8
246.12	694.4
246.502	698.4
246.884	688.4
247.266	687.2
247.648	686
248.03	718
248.412	688.4
248.794	701.6
249.176	686
249.559	698.6
249.941	689
250.323	673.8
250.706	682.8
251.089	688
251.471	701
251.854	690
252.237	688.8
252.62	698.4
253.002	688.4
253.385	682.6
253.769	704.6
254.152	693.8
254.535	704.6
254.918	674.8
255.301	695.6
255.685	685.8
256.068	675
256.452	714
256.835	700.4
257.219	698.6
257.603	701
257.986	680.8
258.37	691.6
258.754	678.4
259.138	692.2
259.522	703.8
259.906	679.2
260.29	689.4
260.675	688.2
261.059	686.2
261.443	680.2
261.828	694.4
262.212	688.6
262.597	674
262.981	679.6
263.366	689.8
263.751	686.4
264.136	681
264.521	685.2
264.906	673.4
265.291	699.8
265.676	685.4
266.061	694.6
266.446	707.6
266.831	691.8
267.217	719.2
267.602	691.2
267.987	693.4
268.373	685.6
268.759	702.8
269.144	692.8
269.53	684
269.916	694.4
270.302	686.6
270.688	703.6
271.074	693.2
271.46	711.2
271.846	729.4
272.232	687.2
272.618	683.6
273.004	690.6
273.391	702.4
273.777	690.4
274.164	699.2
274.55	701.2
274.937	693.2
275.324	690
275.71	702.4
276.097	693.4
276.484	679.8
276.871	688.6
277.258	693.6
277.645	671.4
278.032	686.4
278.419	676.8
278.807	693.6
279.194	676.2
279.581	672.4
279.969	702
280.356	683.4
280.744	683
281.131	716
281.519	697.6
281.907	688
282.295	686.2
282.682	702.2
283.07	695.2
283.458	693.8
283.846	700.2
284.235	698.8
284.623	710
285.011	679
285.399	685.2
285.788	686.2
286.176	682.2
286.565	706.2
286.953	681.2
287.342	688
287.731	682.6
288.119	680.2
288.508	695.6
288.897	691.2
289.286	670.2
289.675	686
290.064	718.2
290.453	689
290.821	686.8
291.21	708.2
291.599	690.8
291.989	687.8
292.378	696.6
292.768	713.4
293.157	699
293.547	699.8
293.936	683.8
294.326	677
294.716	696.8
295.106	684.2
295.496	701.6
295.886	693.4
296.276	690.4
296.666	684.2
297.056	680.4
297.446	677
297.836	713.8
298.227	686
298.617	699.6
299.008	706.2
299.398	685.8
299.789	683.8
300.179	699.2
300.57	705
300.961	683
301.352	687.8
301.742	704.8
302.133	689.6
302.524	690
302.915	696.4
303.307	682.8
303.698	695.6
304.089	697.2
304.48	690
304.872	705.4
305.263	693.8
305.655	685.6
306.046	702.4
306.438	700.8
306.829	684
307.221	715.6
307.613	702
308.005	711.6
308.397	713.2
308.789	719.4
309.181	721.4
309.573	717.4
309.965	708.8
310.357	700.2
310.749	708.4
311.142	681.6
311.534	687
311.926	702.8
312.319	693.6
312.711	686.4
313.104	709
313.497	694.2
313.889	731.2
314.282	708
314.675	723.4
315.068	697.8
315.461	702.6
315.854	729.8
316.247	699.8
316.64	694.6
317.033	695
317.405	694
317.798	693.6
318.192	698
318.585	686.2
318.979	702.4
319.372	694.4
319.766	685.2
320.16	705.4
320.553	700.8
320.947	714.6
321.341	688
321.735	696.4
322.129	680.2
322.523	723.8
322.917	681.4
323.311	707.4
323.705	693.4
324.099	698.4
324.494	710.6
324.888	701.8
325.282	689
325.677	701
326.071	703.4
326.466	696.6
326.861	693.8
327.255	707.6
327.65	703
328.045	709.8
328.44	690.2
328.835	694
329.23	684.8
329.625	724.6
330.02	685.8
330.415	718.4
330.81	700.2
331.206	692.8
331.601	682.8
331.996	688.4
332.37	719.6
332.766	683
333.161	714.2
333.557	690.6
333.953	697
334.348	1085.4
334.744	698
335.14	686.2
335.536	680.2
335.932	703
336.328	687.2
336.724	702.8
337.12	692.6
337.516	694
337.913	688.2
338.309	702.8
338.705	684.2
339.102	705.2
339.498	686
339.895	702.6
340.291	683.4
340.688	696.6
341.085	680.4
341.481	695.6
341.878	687.4
342.275	709.2
342.672	679
343.069	679.4
343.466	670.8
343.842	699.2
344.239	675.2
344.636	689.4
345.033	677
345.431	682
345.828	692.2
346.225	680.4
346.623	732.8
347.02	697.4
347.418	694.8
347.816	703.2
348.213	679
348.611	698.8
349.009	677.2
349.407	700
349.805	677.6
350.203	677.8
350.601	706
350.999	693.4
351.397	745.6
351.795	689
352.193	705
352.57	703
352.969	708.6
353.367	675.8
353.766	672.8
354.164	692.2
354.563	702.4
354.961	694.2
355.36	689.6
355.759	682.4
356.158	679
356.557	674.8
356.956	682.4
357.355	670.4
357.754	689.2
358.153	690.4
358.552	712.2
358.951	692.4
359.35	698
359.75	687
360.149	680.2
360.527	666.4
360.926	675.2
361.326	688.2
361.726	673.2
362.125	671.2
362.525	693.6
362.925	678.4
363.325	674.4
363.724	684
364.124	693.4
364.524	671
364.924	682.2
365.324	703.6
365.725	665.2
366.125	690.4
366.525	687.6
366.904	682.4
367.304	662.6
367.705	702.4
368.105	706
368.506	689.6
368.906	679.8
369.307	688.6
369.708	693.8
370.108	671.8
370.509	696.2
370.91	681.4
371.311	698.6
371.712	686.8
372.113	682.2
372.514	667
372.894	677
373.295	678.4
373.696	693.8
374.097	693.8
374.499	710.4
374.9	683.4
375.301	669.6
375.703	690.4
376.105	678.6
376.506	685.4
376.908	686.6
377.309	689.8
377.711	685.2
378.113	683
378.493	683.8
378.895	685
379.297	693
379.699	674.4
380.102	694.2
380.504	683.6
380.906	680.4
381.308	701.4
381.71	677.6
382.113	692.8
382.515	677.6
382.918	692.2
383.299	671.4
383.701	692.4
384.104	676.2
384.507	662.2
384.909	683.8
385.312	658.4
385.715	674.4
386.118	686.8
386.521	660.2
386.924	703.6
387.327	672
387.709	665.2
388.112	671.8
388.515	676.2
388.918	679.4
389.322	696
389.725	680.8
390.129	708
390.532	695.6
390.936	677.8
391.339	682.8
391.743	692.6
392.125	669.4
392.529	693.6
392.933	697.6
393.337	679
393.74	685.4
394.144	685.2
394.548	678.6
394.953	674.8
395.357	700.2
395.761	678.2
396.144	682.4
396.548	681.8
396.952	684.4
397.357	684.8
397.761	677.2
398.166	680.4
398.57	682.2
398.975	679.4
399.379	690.6
399.763	738.8
400.168	679.6
400.572	681.2
400.977	674
401.382	699.2
401.787	686.8
402.192	703
402.597	704.2
403.002	668.4
403.386	693.8
403.791	696.4
404.197	681
404.602	688.2
405.007	681.6
405.413	671
405.818	684.4
406.224	669.6
406.608	684.2
407.014	672
407.42	700
407.825	677.2
408.231	686.4
408.637	693.2
409.043	701.4
409.449	681
409.834	669.6
410.24	690.6
410.646	695.4
411.052	693.8
411.458	683.8
411.865	693.4
412.271	702.2
412.677	695.6
413.062	691.4
413.469	676.4
413.875	704.2
414.282	690.6
414.689	687.8
415.095	696.6
415.502	672.4
415.888	687.6
416.294	671.2
416.701	730.8
417.108	679
417.515	698.6
417.923	678.4
418.33	706.4
418.715	690.8
419.123	679
419.53	688.2
419.937	682.4
420.345	703.6
420.752	683.4
421.16	711.6
421.546	690.8
421.953	701.6
422.361	675.4
422.769	676
423.177	675.8
423.585	713.2
423.992	708.8
424.379	702.4
424.787	697.6
425.195	711.2
425.603	686.2
426.011	699.8
426.419	700.6
426.806	684.6
427.214	684.4
427.623	696
428.031	704.6
428.44	683.4
428.848	694.4
429.235	708.4
429.644	688
430.053	677.8
430.461	709.2
430.87	713.2
431.279	693.4
431.666	673
432.075	687.8
432.484	700.6
432.893	682.4
433.302	713.6
433.711	742.4
434.099	692.4
434.508	683.2
434.918	674.8
435.327	689
435.737	686.4
436.125	689.6
436.534	702.6
436.944	692.8
437.353	697
437.763	699
438.173	674.4
438.561	685.2
438.971	661.2
439.381	678
439.791	676.8
440.201	663
440.589	689
440.999	692.2
441.409	680
441.819	672.4
442.23	692.6
442.619	692.8
443.029	688
443.439	686.2
443.85	700.6
444.26	685.8
444.649	681.2
445.06	681.4
445.471	676
445.881	674.4
446.292	697.4
446.682	698.8
447.092	655.8
447.503	745.2
447.914	675.4
448.325	679
448.715	675.2
449.126	674.8
449.537	679.8
449.948	678.6
450.338	684.6
450.75	679.8
451.161	683.4
451.572	684
451.984	684.8
452.374	658.6
452.786	681.4
453.197	688.6
453.609	692.8
453.999	667.6
454.411	678.2
454.823	696.2
455.235	685.8
455.647	681.6
456.037	685
456.449	664
456.862	685.6
457.274	681.8
457.665	674.6
458.077	682.2
458.489	713.2
458.902	687.4
459.293	677.2
459.705	678.2
460.118	671.6
460.53	681
460.921	682.6
461.334	682.8
461.747	684
462.16	694.2
462.551	698.6
462.964	690
463.377	666.8
463.79	672.4
464.182	695
464.595	685.2
465.008	679.8
465.421	691
465.813	673.6
466.226	680.6
466.64	684.8
467.053	728.6
467.445	685.2
467.859	684.4
468.272	677.2
468.686	695.8
469.078	676.4
469.492	669.6
469.906	678.6
470.298	684.8
470.712	670
471.126	755.4
471.54	663.2
471.933	664.4
472.347	675.6
472.761	674.4
473.175	668.6
473.568	673.2
473.982	673.6
474.397	670.4
474.79	675.6
475.204	684.8
475.619	677
476.033	680.4
476.426	673
476.841	678.8
477.256	713.8
477.649	669
478.064	661
478.479	666.2
478.872	672.2
479.287	655
479.702	670.2
480.118	672.2
480.511	680.2
480.927	675.6
481.342	674.4
481.736	683.6
482.151	676.8
482.566	692
482.96	670.4
483.376	682.6
483.792	664
484.186	683.2
484.602	673.4
485.017	679.2
485.412	670.8
485.827	685.8
486.243	679.2
486.638	704.8
487.054	683.2
487.47	685.6
487.865	671.2
488.281	672.6
488.697	658.2
489.092	664.8
489.508	664.2
489.925	684.8
490.32	657.6
490.736	672.6
491.153	675.4
491.548	679.4
491.964	682.4
492.381	659.6
492.776	682.8
493.193	670.8
493.61	684
494.006	677
494.422	681.4
494.84	656.8
495.235	686.6
495.652	672.4
496.069	674.4
496.465	659.4
496.883	670.2
497.3	700.2
497.696	668
498.113	686.6
498.509	658.6
498.927	655.4
499.344	664.6
499.741	665.4
500.158	679.4
500.576	687.2
500.973	673.8
501.39	659.4
501.787	659.4
502.205	681.6
502.623	676
503.02	651.4
503.438	666.2
503.856	671.6
504.253	673
504.671	678.2
505.068	662.8
505.486	664.2
505.905	698.2
506.302	676
506.72	688.2
507.118	658
507.536	678.2
507.955	673.6
508.352	683.4
508.771	677.8
509.169	683.6
509.587	671.6
510.006	674.8
510.404	653.6
510.823	670.4
511.221	672.6
511.64	669.6
512.038	691.8
512.457	672.6
512.877	674.4
513.275	659.4
513.694	671.8
514.092	666.8
514.512	673.6
514.91	667.4
515.33	673.6
515.749	677.8
516.148	674.8
516.568	671.8
516.966	673
517.386	662.6
517.785	684
518.205	672.6
518.603	659.8
519.024	663.8
519.444	672.4
519.843	679.2
520.263	691.6
520.662	680.8
521.082	660.6
521.481	670.6
521.902	669.4
522.301	675.6
522.722	676.4
523.121	674.8
523.542	678.4
523.963	668.4
524.362	679
524.783	675.6
525.183	671
525.604	674.2
526.003	669.4
526.425	671.2
526.824	683.4
527.246	677.6
527.646	687
528.067	671.4
528.467	670.8
528.888	682.6
529.289	674.6
529.71	676.8
530.11	667.6
530.532	667.6
530.932	668
531.354	665.6
531.755	696.6
532.176	682
532.577	663
532.999	679.4
533.4	673.2
533.822	681.2
534.223	660.8
534.645	665
535.046	657.8
535.468	680.6
535.869	687
536.292	660.8
536.693	723.6
537.115	679.4
537.516	661.2
537.939	660.4
538.34	683.8
538.742	683.8
539.165	667.2
539.566	674.4
539.989	664.2
540.391	666.2
540.814	675.2
541.216	666.8
541.639	671.6
542.041	673.2
542.464	666.4
542.866	669.8
543.268	655.2
543.691	677.4
544.093	674.6
544.517	685.6
544.919	658.8
545.343	681.6
545.745	651
546.147	670.2
546.571	669.4
546.974	660.4
547.398	668
547.8	675.6
548.224	665
548.627	656.8
549.03	663.4
549.454	658
549.857	645.2
550.281	657.8
550.684	658.4
551.087	683.6
551.512	664.2
551.915	675.6
552.34	665.2
552.743	663
553.146	667.2
553.571	669.8
553.975	685.4
554.399	669
554.803	728.6
555.207	662
555.632	666.6
556.036	671
556.461	661.4
556.865	671.6
557.268	670
557.694	671
558.098	682.6
558.502	680.4
558.927	652.2
559.332	666.2
559.736	666.4
560.162	678.6
560.566	664.8
560.992	671.6
561.396	665.4
561.801	669.4
562.227	676.4
562.631	671.2
563.036	670
563.462	678.4
563.867	669.2
564.272	644.6
564.698	672.6
565.103	661
565.508	692.2
565.935	676.2
566.34	674
566.745	682.2
567.172	667
567.577	694.4
567.982	679.8
568.409	687.8
568.815	652.8
569.22	675
569.626	678.8
570.053	648.4
570.459	678.4
570.865	676.8
571.292	671.8
571.698	672
572.104	647.4
572.531	661.2
572.937	674.2
573.343	671.2
573.75	666
574.177	685.8
574.583	677.4
574.99	662.8
575.396	673.2
575.824	659.4
576.231	666.8
576.637	657.8
577.065	699.4
577.472	668.8
577.879	673.4
578.286	685.6
578.714	657.6
579.121	675.2
579.528	668.4
579.935	678.2
580.364	665.6
580.771	641.8
581.178	654.4
581.585	675
582.014	676.2
582.421	666
582.829	659.2
583.236	673
583.644	658.2
584.073	660.6
584.481	662.8
584.889	667
585.296	674.2
585.726	673.2
586.134	661
586.542	666.4
586.95	682.8
587.358	657.4
587.787	676.4
588.196	653
588.604	677.6
589.012	663.4
589.421	654.8
589.851	659.4
590.259	663.8
590.668	668.6
591.076	706.4
591.485	651.2
591.894	665
592.324	681.6
592.733	674.2
593.142	644.2
593.551	666.4
593.96	670.4
594.369	659
594.8	657.6
595.209	664.4
595.618	644.6
596.028	653
596.437	647.6
596.847	664.8
597.256	669.2
597.687	669
598.097	671.6
598.507	658.6
598.917	673.4
599.327	669
599.736	661.6
600.146	682
600.556	667
600.988	676.8
601.398	656.2
601.808	675.8
602.219	647.2
602.629	661.4
603.039	666.8
603.45	694.8
603.86	662.2
604.271	678
604.703	673.2
605.114	655.6
605.525	669
605.935	668.6
606.346	693.4
606.757	679.6
607.168	678
607.579	660.6
607.99	682.8
608.402	680.8
608.813	670.4
609.224	666.2
609.636	653
610.047	665.4
610.48	662.6
610.892	670
611.303	676.4
611.715	665.4
612.127	656.4
612.539	671
612.95	671.6
613.362	645.8
613.774	653
614.186	653.2
614.599	660.6
615.011	668.4
615.423	664.4
615.835	662
616.248	648.2
616.66	663.6
617.073	662
617.485	660.2
617.898	668.4
618.311	663.2
618.723	666
619.136	700
619.549	683
619.962	692.8
620.375	662.8
620.788	669
621.201	657.4
621.614	671
622.028	659.4
622.441	658.4
622.854	688
623.268	655.2
623.681	665.2
624.095	665.6
624.509	667.6
624.922	680.2
625.336	659.6
625.728	667.6
626.142	683.8
626.556	685.4
626.97	672.2
627.384	659.6
627.799	662.8
628.213	663.8
628.627	662
629.041	659.6
629.456	652.4
629.87	669.4
630.285	673.8
630.699	686.2
631.093	662.4
631.507	673
631.922	668
632.337	680.4
632.752	656.4
633.167	660
633.582	669
633.997	653.8
634.412	663.6
634.806	661.4
635.221	651.4
635.637	672.8
636.052	655.6
636.468	662.6
636.883	683.6
637.299	657.8
637.715	648.2
638.109	662
638.525	651
638.941	680.6
639.357	660
639.773	679.4
640.189	658.6
640.584	664.2
641	664.8
641.416	646.2
641.832	660.2
642.249	666
642.665	669.6
643.06	667.6
643.477	676.2
643.894	653
644.31	666.8
644.727	661.8
645.123	664.2
645.54	654.8
645.957	668.2
646.374	680.6
646.77	656.8
647.187	689
647.604	655
648.021	652.6
648.439	658.8
648.835	660.4
649.252	665.2
649.67	657.8
650.088	667.6
650.484	660.6
650.902	657.8
651.32	673
651.738	654.4
652.134	660.2
652.552	683.4
652.971	662.4
653.389	659.6
653.786	680.4
654.204	682.8
654.622	652.6
655.019	654.6
655.438	670.6
655.857	667
656.275	666.8
656.673	656.4
657.091	744.2
657.51	667.4
657.908	664.8
658.327	677.8
658.746	657.2
659.144	664.2
659.563	680.6
659.982	664.2
660.38	661.8
660.8	669.2
661.219	672.2
661.617	665.6
662.037	669.8
662.457	682.4
662.855	649.8
663.275	698.2
663.695	662.8
664.094	666.2
664.514	668
664.934	664.6
665.333	670.8
665.753	663
666.152	649.6
666.572	663.6
666.993	678.8
667.392	653.6
667.812	662
668.212	659
668.632	673.6
669.053	656.8
669.453	669.4
669.874	669
670.273	664.8
670.694	658
671.116	666.2
671.515	668.8
671.937	663.6
672.337	658.2
672.758	651.8
673.158	674.4
673.58	651.8
673.98	667.2
674.402	671.6
674.824	652.4
675.224	653.6
675.646	653.4
676.047	654.4
676.469	655.4
676.869	664.8
677.292	663.6
677.693	654.8
678.115	656.8
678.516	671.4
678.939	669.2
679.34	658.6
679.762	677.2
680.164	667.6
680.586	656.6
680.988	667
681.411	693.2
681.812	656.8
682.236	651.6
682.637	648.2
683.061	654
683.462	658.2
683.864	660.2
684.288	663.4
684.69	654.6
685.114	671.8
685.516	677.2
685.94	654
686.342	659.2
686.766	654.8
687.168	668.4
687.571	685.4
687.995	665.8
688.398	655
688.822	659.6
689.225	686.2
689.628	686.8
690.052	660
690.456	669
690.88	658.8
691.284	652.8
691.687	675.2
692.112	650.8
692.515	643.6
692.919	670.2
693.344	665.6
693.747	662
694.173	653.8
694.577	670.4
694.98	658.6
695.406	654.4
695.81	664.4
696.214	663.8
696.64	660
697.044	664.8
697.448	676.4
697.874	663.8
698.279	660.8
698.684	650.2
699.11	645.4
699.514	657.6
699.919	659.8
700.324	650
700.75	670.6
701.156	668.6
701.561	665.8
701.987	662.6
702.393	674
702.798	674.8
703.203	664.6
703.63	652
704.036	660.2
704.442	657.4
704.847	657
705.274	663
705.68	664.8
706.086	670
706.492	657.6
706.92	659
707.326	669.6
707.732	658.8
708.139	652.6
708.545	645.6
708.973	655.6
709.38	663.8
709.786	645.4
710.193	679.6
710.6	663
711.028	647.6
711.435	656.6
711.842	658.2
712.249	658.6
712.656	656.6
713.064	676.8
713.492	651.2
713.9	654.6
714.307	669.4
714.715	660.4
715.123	670.4
715.53	669.4
715.938	674
716.367	660.8
716.775	666
717.184	652.4
717.592	667.6
718	666.2
718.408	702.8
718.816	716.2
719.225	673.8
719.633	665.8
720.042	643.4
720.472	660.4
720.881	683.2
721.29	663.8
721.699	651.8
722.108	666.8
722.517	666
722.926	656.8
723.335	679.8
723.744	660
724.154	658.4
724.563	656.2
724.973	661.6
725.382	672.8
725.792	655
726.202	645.8
726.612	692.6
727.022	662.2
727.432	656
779.813	652.2
780.223	708.6
780.634	652.6
781.044	661.4
781.454	661.8
781.865	668.8
782.276	645.6
782.686	675.4
783.097	658.2
783.508	658.6
783.919	671.8
784.33	675.6
784.741	683.8
785.152	646.6
785.563	638
785.974	645.8
786.386	672.4
786.776	661
787.188	671.8
787.599	646
788.011	674
788.423	663.8
788.835	661.4
789.247	646
789.659	657
790.071	662
790.483	706.8
790.874	648.2
791.286	670.4
791.699	653.6
792.111	662
792.524	673.2
792.937	659.2
793.349	644.2
793.741	659.2
794.154	652.6
794.567	671
794.98	655.6
795.393	646.4
795.785	671
796.198	651.6
796.612	661.8
797.026	655.2
797.439	641.2
797.831	658.6
798.245	650.6
798.659	656.4
799.073	655.6
799.487	646.8
799.88	650
800.294	651.6
800.708	657.4
801.123	659.2
801.516	676.6
801.93	644.8
802.345	640.4
802.76	657.4
803.153	667.2
803.568	672.6
803.983	659.8
804.377	658
804.792	641.8
805.207	645.4
805.601	656.2
806.016	689
806.432	650.8
806.826	696.2
807.242	680.2
807.658	656.4
808.052	656.8
808.468	654
808.884	648
809.279	644.4
809.695	672.4
810.111	676
810.506	663
810.922	682.4
811.339	661
811.734	667
812.151	654.6
812.546	648.4
812.963	652.4
813.38	659.2
813.776	664.6
814.193	676.8
814.589	649.8
815.006	649.8
815.402	651.2
815.82	643.2
816.237	648.4
816.633	663.6
817.051	650.2
817.448	660.8
817.866	650.2
818.262	676.4
818.68	650.4
819.077	661
819.495	658.2
819.892	704.6
820.311	654.6
820.708	658.4
821.127	648.8
821.524	671
821.943	663.8
822.34	679
822.759	661
823.157	662.8
823.576	671.4
823.974	672.6
824.393	782.6
824.791	660.4
825.189	642
825.609	655.8
826.007	658.8
826.427	644.4
826.826	655.8
827.246	660.2
827.644	643
828.043	668.4
828.463	650
828.862	659.2
829.261	660.4
829.682	641.8
830.081	669.2
830.502	645.2
830.901	660.8
831.301	648.4
831.722	649.4
832.121	660.2
832.521	654.8
832.943	648.2
833.342	661.4
833.742	648.4
834.164	657.8
834.564	629.8
834.965	652.4
835.386	656.4
835.787	650.2
836.188	660.4
836.588	660
837.01	657.2
837.411	655.4
837.812	661.8
838.213	665.6
838.636	662
839.037	736.6
839.438	657.6
839.84	668.6
840.263	661.6
840.664	663.8
841.066	654
841.468	663
841.891	651.4
842.293	665.8
842.695	660.4
843.098	667.2
843.5	658.8
843.902	658.4
844.326	655.6
844.729	658.6
845.131	668.6
845.534	655.6
845.937	670
846.34	674.6
846.764	651.4
847.167	660.6
847.571	649.6
847.974	653.2
848.377	660.4
848.781	703.2
849.184	658.8
849.588	652.6
849.992	648.4
850.396	664.8
850.821	677.2
851.225	659.6
851.63	654.8
852.034	672.6
852.438	656.4
852.843	696
853.247	649
853.652	658.4
854.057	673
854.462	658.4
854.867	654.8
855.272	694.2
855.677	664.8
856.082	647.6
856.487	643.4
856.893	665
857.298	658.6
857.704	649.8
858.11	656.2
858.516	670
858.922	664.8
859.328	668
859.734	660.6
860.14	664.4
860.525	661.6
860.931	645.8
861.338	648.6
861.745	656.8
862.151	668.4
862.558	661.8
862.965	646.4
863.372	653.4
863.779	648
864.186	673.8
864.572	654.2
864.98	677
865.387	689.4
865.795	646.6
866.203	663.8
866.61	645.8
867.018	663.8
867.405	659.8
867.813	651.6
868.221	646
868.63	654.4
869.038	677
869.425	690.4
869.834	665.4
870.243	652.4
870.652	643.4
871.039	652.4
871.448	651.8
871.857	667.6
872.266	664.8
872.654	650.2
873.064	653
873.473	669.8
873.883	652.2
874.271	656.8
874.681	675.4
875.091	642.4
875.48	664
875.89	676.8
876.3	656.8
876.689	648.8
877.1	655.8
877.51	658.8
877.9	686
878.31	659.4
878.721	694.6
879.111	661.6
879.522	650.4
879.933	643
880.323	640.8
880.734	656
881.125	660
881.536	646.4
881.948	652
882.338	651.6
882.75	666.8
883.141	650.8
883.553	658.8
883.944	683.8
884.356	674
884.769	654.2
885.16	659.2
885.573	662.8
885.964	648.2
886.377	652.6
886.768	646.4
887.181	651.6
887.573	641
887.987	682.6
888.378	663.6
888.792	666.4
889.184	714
889.598	654.4
889.99	660.2
890.383	647
890.797	642.8
891.19	668.6
891.604	653
891.997	638.8
892.411	644.2
892.805	648.2
893.198	646.4
893.613	637.6
894.006	652.6
894.421	647.4
894.815	649.6
895.209	643.8
895.624	701.2
896.018	671.2
896.412	646.8
896.828	657
897.222	658.2
897.617	647.2
898.033	676.4
898.427	655.6
898.822	646
899.239	637.6
899.634	639.8
900.029	679
900.424	656
900.841	639.6
901.236	664.8
901.632	659.4
902.027	722.8
902.445	660.2
902.841	649.4
903.237	656.8
903.633	663
904.05	659
904.447	659
904.843	671.8
905.24	660.2
905.636	641.2
906.033	640.8
906.451	663.6
906.848	638.2
907.246	648.2
907.643	658.4
908.04	655.6
908.438	663.4
908.835	662
909.254	648.6
909.652	649.2
910.05	643.6
910.448	647.4
910.846	654.6
911.244	639.6
911.643	656.8
912.041	655.6
912.44	672.4
912.839	646.2
913.237	657
913.636	636.2
914.035	649.4
914.434	658
914.834	660.8
915.233	658.8
915.633	648.2
916.032	639.6
916.432	643.6
916.832	665.2
917.232	651.2
917.632	641.8
918.032	654.8
918.432	646.2
918.833	666
919.233	647.2
919.634	637.6
920.035	662.6
920.436	646.4
920.837	666.6
921.238	637.4
921.639	644.4
922.019	654.2
922.42	651
922.822	658.8
923.224	652.4
923.625	653.8
924.027	656.8
924.429	680
924.81	663.4
925.212	655.8
925.615	658.4
926.017	648.8
926.42	665.6
926.801	655.6
927.204	658.4
927.607	666.2
928.01	677.4
928.413	652
928.795	637
929.199	653.4
929.602	645.8
930.006	651.2
930.388	636
930.792	658.4
931.196	648
931.579	679
931.983	639.4
932.388	702.8
932.771	648.4
933.176	638.2
933.58	665.8
933.964	663.2
934.369	646.8
934.774	661.6
935.158	656
935.563	655.4
935.947	652.8
936.353	664.2
936.759	654
937.143	654.2
937.549	654.6
937.934	668.2
938.34	680.8
938.746	651
939.131	650.2
939.538	645.2
939.923	659.6
940.33	642
940.716	662.8
941.123	660.8
941.508	667.8
941.916	675.8
942.302	658.2
942.709	633.8
943.096	645.8
943.503	660.2
943.89	651.6
944.298	652
944.685	679.2
945.072	647.4
945.48	671.6
945.867	655
946.276	650
946.663	665.2
947.051	678.2
947.46	657.4
947.848	655.4
948.257	650.4
948.645	657.8
949.033	649.2
949.443	650.8
949.831	694.6
950.22	639
950.63	658.8
951.018	687.6
951.407	645.4
951.796	645
952.207	661.4
952.596	661.4
952.985	640.2
953.375	706.6
953.786	652.2
954.176	650.4
954.566	660.8
954.956	642.4
955.367	651
955.758	677.4
956.148	639.8
956.539	658.6
956.929	650.2
957.341	638.4
957.732	644.2
958.123	665
958.515	647.2
958.906	658.4
959.297	650.2
959.689	654.8
960.102	645.6
960.494	657.2
960.886	641.6
961.278	647.2
961.67	683.8
962.062	695
962.455	656
962.847	639.4
963.24	654.2
963.633	656
964.026	640.4
964.419	661
964.812	655.4
965.206	648.4
965.599	655.4
965.993	648.6
966.386	654
966.78	666.2
967.174	664.6
967.569	634.8
967.963	647.8
968.357	648
968.752	648.4
969.146	650.4
969.541	643.2
969.936	656.6
970.331	651.6
970.705	653
971.1	648.6
971.496	666
971.892	643.6
972.287	652.6
972.683	651
973.079	643.2
973.454	662.4
973.85	651.2
974.247	662.6
974.643	683
975.04	658.2
975.415	652.2
975.812	650.4
976.209	660.4
976.607	641.6
976.982	663.6
977.38	682.8
977.778	647
978.175	648.2
978.552	655.8
978.95	657.6
979.348	648.6
979.725	705.2
980.123	638.6
980.522	648.8
980.899	650.2
981.298	646.4
981.697	654.8
982.075	655.6
982.474	656
982.852	647.4
983.251	648.4
983.651	645.6
984.029	659.2
984.429	653.8
984.808	645.4
985.208	646.2
985.609	643.2
985.987	642.6
986.388	632.8
986.768	662
987.168	643
987.548	659.2
987.949	657.8
988.329	653.2
988.731	637.2
989.111	652.4
989.491	643.6
989.893	650
990.273	660.6
990.676	636.4
991.057	646.4
991.459	647.8
991.84	650.2
992.221	637
992.624	669.6
993.006	644.4
993.388	648
993.791	656.2
994.173	652.6
994.576	686.6
994.959	640.6
995.341	649.2
995.724	644.4
996.128	655.4
996.511	653.8
996.894	644.6
997.298	642.8
997.681	661.4
998.065	658.6
998.448	647.4
998.854	667.4
999.237	641.8
999.621	659.4
1000.01	671.6
1000.39	653.6
1000.8	651
1001.18	656.8
1001.56	658.6
1001.95	658.8
1002.33	657.8
1002.72	655.4
1003.13	648.2
1003.51	633.8
1003.9	650.2
1004.28	671.8
1004.67	631.2
1005.06	652
1005.44	683.2
1005.83	634.8
1006.21	653.2
1006.6	641.6
1006.99	656.6
1007.37	653
1007.76	650.6
1060.12	650.8
1060.51	644
1060.89	647
1061.28	654
1061.67	659.8
1062.06	649.6
1062.45	652.8
1062.83	631.8
1063.22	661.2
1063.61	686.6
1064	662.8
1064.39	651.6
1064.78	643.8
1065.14	669.6
1065.53	653.8
1065.92	651.4
1066.31	640.4
1066.7	658.6
1067.09	664
1067.46	664.8
1067.85	651.6
1068.24	655.2
1068.63	653.4
1069.02	647.6
1069.39	655.6
1069.78	656.2
1070.17	653.8
1070.57	643.6
1070.93	655.8
1071.33	648.4
1071.72	653.6
1072.11	650.6
1072.48	642.4
1072.87	648.4
1073.26	649.6
1073.64	638.4
1074.03	648
1074.4	643.6
1074.79	651
1075.19	656.4
1075.56	655.2
1075.95	654
1076.34	657.8
1076.72	643.6
1077.11	651.2
1077.48	666.6
1077.88	650
1078.25	646.4
1078.64	653.2
1079.02	651.8
1079.41	655.2
1079.78	646.6
1080.18	643
1080.55	725
1080.95	637.6
1081.32	639.8
1081.72	656.2
1082.09	652.6
1082.49	647.8
1082.86	642.2
1083.24	642.2
1083.63	637.2
1084.01	643.6
1084.38	651.6
1084.78	642
1085.16	645
1085.55	657.8
1085.93	670.8
1086.31	637.4
1086.7	686.2
1087.08	651
1087.46	643.4
1087.83	636.6
1088.23	659
1088.61	653.2
1088.99	651.4
1089.36	651
1089.76	652.6
1090.14	648
1090.52	641.6
1090.9	640.8
1091.27	646.4
1091.67	682.8
1092.05	657.6
1092.43	646.8
1092.81	662.4
1093.19	648.4
1093.57	646.6
1093.95	646.8
1094.35	668.8
1094.73	660.8
1095.11	639.2
1095.49	652.2
1095.87	642.8
1096.25	664.2
1096.63	653
1097.01	651
1097.39	652.4
1097.77	645.2
1098.15	659.6
1098.53	641.6
1098.91	652.2
1099.29	649.8
1099.68	668.2
1100.06	663.2
1100.44	646.8
1100.82	649.8
1101.18	659.6
1101.56	646
1101.95	644
1102.33	643
1102.71	650.8
1103.1	637.6
1103.48	642.2
1103.86	639
1104.22	652.6
1104.61	649.2
1104.99	642.2
1105.38	636.8
1105.76	647.8
1106.12	651.8
1106.51	692.4
1106.89	661.4
1107.26	649.6
1107.64	660
1108.03	651.4
1108.41	653.4
1108.78	653.6
1109.16	657
1109.55	660
1109.91	646.8
1110.3	636
1110.69	663.2
1111.05	638.2
1111.44	646.6
1111.8	648.4
1112.19	658.6
1112.58	655.4
1112.94	648.2
1113.33	649.6
1113.7	640
1114.09	639.2
1114.45	645.6
1114.84	649
1115.21	651.4
1115.6	645.4
1115.96	647.2
1116.35	650.4
1116.72	643.4
1117.11	661
1117.48	652
1117.85	654
1118.24	668
1118.6	647
1118.99	647
1119.36	646.8
1119.73	648
1120.12	644.8
1120.49	632.8
1120.86	648.2
1121.25	652
1121.62	629.2
1121.99	647
1122.38	656.8
1122.76	646
1123.13	651.2
1123.5	651.2
1123.89	654
1124.26	637.8
1124.63	653.6
1125	647.8
1125.4	636.2
1125.77	636
1126.14	639
1126.51	647.6
1126.88	648.6
1127.26	646.2
1127.63	628.8
1128.02	643.6
1128.4	644
1128.77	652.2
1129.14	655.6
1129.52	647.4
1129.89	646.4
1130.26	643.6
1130.64	638.2
1131.01	644
