#lambda/nm	C1
208.295	557.8
208.67	500.4
209.045	467.4
209.419	461.8
209.794	680.4
210.169	664.8
210.544	797.4
210.919	691.2
211.295	673.2
211.67	684.8
212.045	684.8
212.421	678.8
212.796	731.6
213.172	684.4
213.547	671.4
213.923	684.2
214.299	687.2
214.675	683.6
215.051	683.4
215.427	695.6
215.803	710.2
216.179	693.2
216.555	675.8
216.932	692.8
217.308	679
217.684	683.8
218.061	692.6
218.438	682.8
218.814	683.4
219.191	690.2
219.568	686.4
219.945	677.2
220.322	689
220.699	696.2
221.076	700.8
221.453	691.2
221.83	671.8
222.208	674.4
222.585	680
222.962	692.6
223.34	693.8
223.717	676.8
224.095	674.2
224.473	690.4
224.851	677
225.229	670
225.607	703.2
225.985	674
226.363	686.6
226.741	689.2
227.119	676.6
227.497	693.8
227.876	663
228.254	691
228.633	689
229.011	686.4
229.39	694.8
229.769	696.8
230.148	685.6
230.527	700
230.905	679.4
231.284	686.4
231.664	684.8
232.043	698.8
232.422	695.8
232.801	673.6
233.181	685.4
233.56	692.6
233.94	689.6
234.319	669.8
234.699	682.4
235.079	732.8
235.458	725.2
235.838	702
236.218	685.6
236.598	669
236.978	687.4
237.358	688
237.738	680.4
238.119	694.8
238.499	675.2
238.88	688.4
239.26	697
239.641	672.6
240.021	677.8
240.402	682.2
240.783	678.4
241.163	682
241.544	693.6
241.925	682.2
242.306	694.2
242.687	681.2
243.069	687.2
243.45	696.8
243.831	671.2
244.212	684.6
244.594	722.6
244.975	693.2
245.357	698.4
245.739	679.6
246.12	683
246.502	711.6
246.884	684
247.266	682.8
247.648	688.6
248.03	711.8
248.412	690.2
248.794	683.4
249.176	686.6
249.559	699.6
249.941	676.6
250.323	679
250.706	683.2
251.089	681.6
251.471	689.4
251.854	691.8
252.237	688
252.62	701.8
253.002	683.2
253.385	681.6
253.769	707.2
254.152	682.8
254.535	695.2
254.918	680.8
255.301	684.4
255.685	675.6
256.068	673.2
256.452	712.2
256.835	702.6
257.219	688
257.603	709.8
257.986	673.4
258.37	697
258.754	675
259.138	686.4
259.522	696.2
259.906	685.2
260.29	694.2
260.675	686.6
261.059	694
261.443	669.6
261.828	694.2
262.212	682.6
262.597	680.6
262.981	681.4
263.366	693.8
263.751	682.8
264.136	672.4
264.521	673.2
264.906	676.4
265.291	698.2
265.676	683.6
266.061	699.2
266.446	710.8
266.831	689.6
267.217	703
267.602	687
267.987	685.6
268.373	685.6
268.759	692.4
269.144	691.4
269.53	687
269.916	682.4
270.302	676.2
270.688	697.6
271.074	684.4
271.46	705.2
271.846	730.6
272.232	688.2
272.618	677.6
273.004	681.4
273.391	698.2
273.777	707.6
274.164	693
274.55	708.6
274.937	691
275.324	687.8
275.71	696.4
276.097	692.4
276.484	678
276.871	680.4
277.258	676.4
277.645	672.4
278.032	683.4
278.419	680.6
278.807	684.6
279.194	674
279.581	678
279.969	682.4
280.356	681.8
280.744	686.8
281.131	713.6
281.519	693.8
281.907	670
282.295	687.6
282.682	701.8
283.07	681.8
283.458	691.8
283.846	699.4
284.235	697.4
284.623	698.2
285.011	676.6
285.399	684.4
285.788	695.2
286.176	673.2
286.565	697.6
286.953	682.6
287.342	685
287.731	685.6
288.119	679
288.508	680
288.897	689
289.286	674.4
289.675	679.2
290.064	697.4
290.453	683.4
290.821	683.2
291.21	703.4
291.599	684.4
291.989	690.2
292.378	687.4
292.768	702
293.157	689.6
293.547	702.2
293.936	675.6
294.326	683.6
294.716	691.8
295.106	689.4
295.496	693.4
295.886	699.8
296.276	688
296.666	680
297.056	674.6
297.446	677
297.836	705.8
298.227	682.2
298.617	692.8
299.008	701
299.398	679.8
299.789	683
300.179	689.2
300.57	699
300.961	676.8
301.352	674
301.742	697.4
302.133	688.4
302.524	681.6
302.915	690.6
303.307	680.4
303.698	695.6
304.089	697.4
304.48	691.2
304.872	687.2
305.263	672.6
305.655	680.4
306.046	698.8
306.438	694.6
306.829	688.6
307.221	701.2
307.613	692.2
308.005	698.8
308.397	695.8
308.789	713
309.181	719
309.573	697.8
309.965	701.2
310.357	681
310.749	698
311.142	687.2
311.534	680.4
311.926	691
312.319	688
312.711	675
313.104	696.2
313.497	685.8
313.889	734.6
314.282	702.2
314.675	708.4
315.068	687.2
315.461	692.6
315.854	723.2
316.247	691.4
316.64	680.6
317.033	678.2
317.405	696.8
317.798	680.4
318.192	692
318.585	681.8
318.979	699.6
319.372	675.4
319.766	678.2
320.16	702.8
320.553	697
320.947	719.6
321.341	683.4
321.735	682
322.129	673.8
322.523	704.6
322.917	671.2
323.311	702.6
323.705	693.8
324.099	696.4
324.494	707
324.888	700.2
325.282	685.2
325.677	702.2
326.071	699
326.466	696.6
326.861	688
327.255	702.4
327.65	704.8
328.045	702.6
328.44	695
328.835	687.2
329.23	676
329.625	722.2
330.02	683
330.415	713.2
330.81	695
331.206	688.4
331.601	677.2
331.996	691.6
332.37	713.2
332.766	678.6
333.161	712
333.557	680.2
333.953	689.4
334.348	1040.4
334.744	691.8
335.14	688.2
335.536	690
335.932	703.6
336.328	688
336.724	693.2
337.12	685
337.516	685.6
337.913	691.8
338.309	704
338.705	688.8
339.102	706
339.498	687.2
339.895	711.4
340.291	683.4
340.688	695.8
341.085	679.6
341.481	689
341.878	694.2
342.275	713.8
342.672	684
343.069	681
343.466	680.8
343.842	700.2
344.239	682.8
344.636	683
345.033	670
345.431	678.4
345.828	688.2
346.225	684.6
346.623	726.2
347.02	688
347.418	689
347.816	706
348.213	677.6
348.611	696.4
349.009	692
349.407	713.2
349.805	674.2
350.203	674.8
350.601	698.6
350.999	687
351.397	756.8
351.795	690.2
352.193	698.8
352.57	696.6
352.969	711.4
353.367	676.2
353.766	675.4
354.164	683.6
354.563	699.4
354.961	680.8
355.36	680.2
355.759	686.8
356.158	669.8
356.557	675.4
356.956	671
357.355	673
357.754	687.2
358.153	688.4
358.552	715.6
358.951	680.2
359.35	697.6
359.75	676.8
360.149	672.4
360.527	663.2
360.926	682.2
361.326	679.2
361.726	676
362.125	671.8
362.525	704.4
362.925	688.6
363.325	682.2
363.724	683.4
364.124	675.4
364.524	673.4
364.924	683
365.324	691.2
365.725	673
366.125	692.2
366.525	678.8
366.904	676.8
367.304	660.2
367.705	700.2
368.105	695.2
368.506	672.6
368.906	679.4
369.307	683
369.708	688.8
370.108	677.8
370.509	687.2
370.91	676.4
371.311	684.6
371.712	679.6
372.113	678.2
372.514	667.2
372.894	677.8
373.295	675.8
373.696	691.2
374.097	698
374.499	719
374.9	692.8
375.301	675.8
375.703	687.6
376.105	675.8
376.506	690.4
376.908	689.2
377.309	681
377.711	682.2
378.113	683.6
378.493	685.2
378.895	677.4
379.297	687.4
379.699	668.8
380.102	688
380.504	682.2
380.906	676.2
381.308	701
381.71	683.2
382.113	690.2
382.515	676.6
382.918	676
383.299	673.4
383.701	681.2
384.104	687.2
384.507	654
384.909	678.2
385.312	653.8
385.715	672.2
386.118	669.2
386.521	662.2
386.924	693.6
387.327	675.6
387.709	670.2
388.112	656
388.515	672.6
388.918	678.8
389.322	688.6
389.725	676.2
390.129	704.2
390.532	685.6
390.936	672.6
391.339	670.4
391.743	681.2
392.125	674.6
392.529	693.6
392.933	696
393.337	677.8
393.74	679
394.144	682.8
394.548	670.6
394.953	682.6
395.357	688.8
395.761	677
396.144	674.2
396.548	672
396.952	685
397.357	682.6
397.761	682.8
398.166	672.4
398.57	674
398.975	670.6
399.379	676.6
399.763	730.6
400.168	676.6
400.572	685.6
400.977	675.6
401.382	691.6
401.787	696.4
402.192	696.4
402.597	695
403.002	668.2
403.386	695.6
403.791	705.8
404.197	676.8
404.602	675.6
405.007	681.2
405.413	674
405.818	678.8
406.224	673.4
406.608	668
407.014	664.6
407.42	701.6
407.825	662.6
408.231	693.2
408.637	675.2
409.043	693.2
409.449	673.4
409.834	667.8
410.24	676.4
410.646	688
411.052	682.6
411.458	686.6
411.865	687.4
412.271	692.6
412.677	677.2
413.062	683.6
413.469	669.4
413.875	706.8
414.282	688.8
414.689	689.4
415.095	693.6
415.502	678
415.888	681
416.294	667.8
416.701	731.4
417.108	675.6
417.515	687.2
417.923	675.2
418.33	695.4
418.715	697.6
419.123	676.6
419.53	671.2
419.937	673
420.345	697.2
420.752	670.6
421.16	687.4
421.546	676.8
421.953	684
422.361	671.2
422.769	681
423.177	680.2
423.585	711.8
423.992	701.6
424.379	691.4
424.787	700.8
425.195	707
425.603	688
426.011	698.8
426.419	697.2
426.806	689.2
427.214	682.4
427.623	701.8
428.031	696.8
428.44	689.8
428.848	703.6
429.235	703.8
429.644	692
430.053	682.4
430.461	702.4
430.87	721
431.279	698.6
431.666	680.8
432.075	687.6
432.484	701.2
432.893	676.4
433.302	706.2
433.711	732
434.099	690.4
434.508	681
434.918	683
435.327	692.6
435.737	699.4
436.125	697.2
436.534	695
436.944	699.8
437.353	704
437.763	725.4
438.173	687.8
438.561	714.8
438.971	682.2
439.381	710.8
439.791	707.4
440.201	683.2
440.589	712
440.999	719.4
441.409	718.6
441.819	693.8
442.23	717.2
442.619	718
443.029	714
443.439	721
443.85	725.8
444.26	744.2
444.649	721
445.06	711.2
445.471	697.6
445.881	716.8
446.292	744.6
446.682	741.6
447.092	709.8
447.503	778.8
447.914	727.6
448.325	720.4
448.715	724.8
449.126	712
449.537	728.8
449.948	728.2
450.338	733.4
450.75	732.6
451.161	720
451.572	727
451.984	720.6
452.374	714
452.786	719.8
453.197	727.4
453.609	731.6
453.999	718.4
454.411	719
454.823	745.8
455.235	727.8
455.647	734.8
456.037	732
456.449	712.8
456.862	721.6
457.274	733.2
457.665	724.6
458.077	734.6
458.489	775.4
458.902	723.6
459.293	734.4
459.705	725.2
460.118	718.4
460.53	736.4
460.921	734
461.334	731
461.747	732.6
462.16	745.2
462.551	737
462.964	737.8
463.377	724
463.79	739.2
464.182	743.4
464.595	731.2
465.008	730.8
465.421	743.2
465.813	730.8
466.226	736.2
466.64	733.4
467.053	784.4
467.445	748.8
467.859	756.4
468.272	742.4
468.686	743.6
469.078	734.6
469.492	722.4
469.906	740.4
470.298	735.6
470.712	733.4
471.126	793.2
471.54	719.8
471.933	729.6
472.347	730.2
472.761	733.8
473.175	726
473.568	725.2
473.982	722.6
474.397	741.2
474.79	735.6
475.204	744
475.619	739
476.033	730.8
476.426	739
476.841	723.8
477.256	761.2
477.649	726.8
478.064	726.4
478.479	732.8
478.872	725
479.287	711.4
479.702	727.8
480.118	733.8
480.511	727.8
480.927	731.4
481.342	716.2
481.736	736.4
482.151	730.2
482.566	728.2
482.96	733.2
483.376	738.6
483.792	724.4
484.186	728.6
484.602	727.8
485.017	724.6
485.412	725.2
485.827	738.2
486.243	729.2
486.638	754.6
487.054	736.4
487.47	738.2
487.865	726.2
488.281	715.4
488.697	717
489.092	724.8
489.508	714.2
489.925	733.8
490.32	714
490.736	733.4
491.153	728.2
491.548	724.8
491.964	729
492.381	711.4
492.776	724
493.193	720
493.61	727.4
494.006	720.4
494.422	729
494.84	716.2
495.235	732.4
495.652	723.4
496.069	728
496.465	713
496.883	718.6
497.3	747.2
497.696	709.8
498.113	723.2
498.509	711.6
498.927	707.2
499.344	706
499.741	707.2
500.158	733.6
500.576	729
500.973	724.6
501.39	702.6
501.787	708.6
502.205	716.4
502.623	715.4
503.02	701.8
503.438	709
503.856	709.2
504.253	718.4
504.671	724.8
505.068	705.8
505.486	721
505.905	737.4
506.302	718.4
506.72	722.2
507.118	706
507.536	708.4
507.955	699
508.352	708.4
508.771	709.2
509.169	714.2
509.587	695.6
510.006	701
510.404	689.2
510.823	697.8
511.221	699
511.64	701.6
512.038	709.8
512.457	707.2
512.877	696.6
513.275	685.4
513.694	705.2
514.092	701.2
514.512	700.4
514.91	701.8
515.33	698.8
515.749	696.6
516.148	713.4
516.568	702
516.966	695.2
517.386	692.6
517.785	707.4
518.205	694.8
518.603	699.6
519.024	686
519.444	693.6
519.843	700.4
520.263	711
520.662	698.2
521.082	698.8
521.481	700
521.902	698
522.301	691.4
522.722	699.4
523.121	691
523.542	686
523.963	692.2
524.362	694
524.783	694
525.183	692.8
525.604	689
526.003	679
526.425	686.4
526.824	698.6
527.246	701
527.646	695.8
528.067	690
528.467	694.6
528.888	701.2
529.289	687.4
529.71	688.6
530.11	692
530.532	688.2
530.932	686
531.354	685
531.755	723.4
532.176	694.6
532.577	694
532.999	686.6
533.4	681.2
533.822	704.8
534.223	686.6
534.645	677.8
535.046	681
535.468	685
535.869	700.4
536.292	684.8
536.693	731.6
537.115	690
537.516	678.2
537.939	679.2
538.34	714.8
538.742	695.6
539.165	685
539.566	684.8
539.989	678.8
540.391	678.4
540.814	689.2
541.216	683.2
541.639	686
542.041	689.4
542.464	676
542.866	678.2
543.268	673.2
543.691	687
544.093	701
544.517	707
544.919	668.4
545.343	714.2
545.745	675.4
546.147	685
546.571	672.2
546.974	671.4
547.398	686
547.8	704.2
548.224	685.8
548.627	681.2
549.03	697.4
549.454	678
549.857	671.8
550.281	668
550.684	670.2
551.087	692.8
551.512	687.4
551.915	685.8
552.34	679.2
552.743	683.8
553.146	679.8
553.571	680.6
553.975	695.4
554.399	673.8
554.803	737.6
555.207	675.6
555.632	670.6
556.036	688.8
556.461	674.4
556.865	672.6
557.268	666
557.694	673.8
558.098	692.8
558.502	684.2
558.927	676.6
559.332	675.4
559.736	681.2
560.162	683
560.566	681.2
560.992	679.2
561.396	680
561.801	679
562.227	680.8
562.631	678
563.036	678.2
563.462	687
563.867	687.2
564.272	670
564.698	685.8
565.103	668.8
565.508	698.6
565.935	674.4
566.34	672
566.745	687.4
567.172	678.2
567.577	693.6
567.982	693.6
568.409	685
568.815	663.6
569.22	668.8
569.626	679.2
570.053	653
570.459	677.2
570.865	684
571.292	675.8
571.698	674.8
572.104	654
572.531	671.4
572.937	673.2
573.343	672
573.75	673.4
574.177	682.4
574.583	671.4
574.99	671.6
575.396	678.8
575.824	678.4
576.231	679
576.637	664.8
577.065	702.2
577.472	672.2
577.879	667
578.286	688.2
578.714	664.4
579.121	668
579.528	680.4
579.935	678.2
580.364	669.8
580.771	649.4
581.178	664.8
581.585	672.2
582.014	678.2
582.421	668
582.829	670.8
583.236	675.8
583.644	664.2
584.073	664.2
584.481	665.4
584.889	665.4
585.296	675
585.726	669.4
586.134	668.4
586.542	663.6
586.95	685.2
587.358	664
587.787	673.4
588.196	654.8
588.604	667.6
589.012	669.8
589.421	659
589.851	658
590.259	668.4
590.668	668.2
591.076	703.6
591.485	655
591.894	666.6
592.324	679.8
592.733	676.4
593.142	661
593.551	666
593.96	668.2
594.369	653.2
594.8	657.2
595.209	661
595.618	652.8
596.028	667
596.437	658.6
596.847	664.8
597.256	668.6
597.687	678.8
598.097	673
598.507	650.2
598.917	667.4
599.327	672
599.736	667.2
600.146	678
600.556	667
600.988	691
601.398	656.8
601.808	671.4
602.219	659.4
602.629	663.4
603.039	675.4
603.45	698
603.86	670.8
604.271	676.8
604.703	668.6
605.114	667.2
605.525	669.2
605.935	678.2
606.346	687.6
606.757	674.4
607.168	670
607.579	661.6
607.99	680.2
608.402	671.8
608.813	673
609.224	666
609.636	667.2
610.047	657.6
610.48	667.4
610.892	673.2
611.303	672
611.715	661.8
612.127	657.2
612.539	655
612.95	669
613.362	646.6
613.774	648
614.186	653.2
614.599	656.2
615.011	662.8
615.423	663.2
615.835	651.6
616.248	651.2
616.66	664
617.073	648.2
617.485	656.6
617.898	675.6
618.311	667.8
618.723	662.4
619.136	693.2
619.549	672.8
619.962	695
620.375	665.2
620.788	675.4
621.201	664.8
621.614	679.4
622.028	673.6
622.441	665.6
622.854	680.8
623.268	659.2
623.681	671.2
624.095	661.2
624.509	673.2
624.922	671.4
625.336	653.4
625.728	660.6
626.142	675
626.556	683.2
626.97	667
627.384	655
627.799	656.6
628.213	672
628.627	658.6
629.041	658.4
629.456	662
629.87	656
630.285	678.2
630.699	672.8
631.093	660.8
631.507	658.8
631.922	670
632.337	679
632.752	657.8
633.167	666.4
633.582	659.2
633.997	656.8
634.412	656.2
634.806	662.2
635.221	646.6
635.637	672
636.052	644.6
636.468	667.8
636.883	690
637.299	653.6
637.715	649.6
638.109	662.4
638.525	646.8
638.941	673
639.357	666.6
639.773	677.8
640.189	655.2
640.584	660.2
641	665.4
641.416	648.4
641.832	657.2
642.249	660.8
642.665	660.2
643.06	670.4
643.477	677.6
643.894	645.4
644.31	665.8
644.727	659.8
645.123	657.2
645.54	652.6
645.957	665.6
646.374	678.2
646.77	668.4
647.187	700.2
647.604	660.4
648.021	649.2
648.439	661
648.835	665.2
649.252	665.6
649.67	662
650.088	665
650.484	668.4
650.902	660.8
651.32	674
651.738	658.6
652.134	665
652.552	684.2
652.971	670.8
653.389	658.8
653.786	681.4
654.204	689
654.622	658.6
655.019	662.4
655.438	669.6
655.857	668.8
656.275	663.2
656.673	649.4
657.091	745.6
657.51	663.6
657.908	673.4
658.327	681.6
658.746	651.2
659.144	665.8
659.563	675.2
659.982	669.6
660.38	655.6
660.8	668.4
661.219	664.8
661.617	664.6
662.037	657.4
662.457	672
662.855	649.8
663.275	696
663.695	664.6
664.094	657.8
664.514	673.4
664.934	657
665.333	678.4
665.753	659.2
666.152	651.6
666.572	657.6
666.993	676.6
667.392	662
667.812	661.8
668.212	670
668.632	676.8
669.053	665
669.453	673.2
669.874	664.4
670.273	660.6
670.694	650.8
671.116	683.8
671.515	673.4
671.937	662.8
672.337	655.6
672.758	663.6
673.158	668.6
673.58	657.2
673.98	659.2
674.402	670.6
674.824	660.4
675.224	656.2
675.646	656.2
676.047	662.4
676.469	663.6
676.869	670.4
677.292	659.2
677.693	657.4
678.115	653.4
678.516	665.8
678.939	667.4
679.34	655.8
679.762	667
680.164	672.6
680.586	643
680.988	663.2
681.411	681
681.812	657.8
682.236	653.4
682.637	650.4
683.061	649
683.462	665.2
683.864	657.8
684.288	666.8
684.69	655.4
685.114	671.6
685.516	671.4
685.94	645.2
686.342	671.8
686.766	654.2
687.168	655.2
687.571	683.2
687.995	657.6
688.398	653.6
688.822	656.2
689.225	675
689.628	681.4
690.052	662.6
690.456	677.8
690.88	664.2
691.284	655.6
691.687	663.8
692.112	648.2
692.515	656
692.919	660.2
693.344	657.4
693.747	654.2
694.173	647.4
694.577	678.2
694.98	654.6
695.406	651.4
695.81	670.8
696.214	657.8
696.64	658
697.044	663.6
697.448	667.8
697.874	666.8
698.279	660
698.684	647.4
699.11	651
699.514	654.8
699.919	660
700.324	643.8
700.75	661.6
701.156	660.8
701.561	671.4
701.987	670
702.393	666.6
702.798	678.2
703.203	658
703.63	645.6
704.036	665.2
704.442	661.2
704.847	644.4
705.274	656.4
705.68	666
706.086	672.4
706.492	642.8
706.92	660.2
707.326	674.6
707.732	661.2
708.139	652.8
708.545	652.4
708.973	656.2
709.38	667.2
709.786	651.6
710.193	678
710.6	667.4
711.028	648.4
711.435	657.2
711.842	665.2
712.249	655
712.656	660.8
713.064	666.8
713.492	658.6
713.9	655.6
714.307	666.8
714.715	654
715.123	656.2
715.53	655.4
715.938	664.4
716.367	657.2
716.775	651.2
717.184	642.6
717.592	660.8
718	665.4
718.408	689.6
718.816	711.4
719.225	664.6
719.633	658.6
720.042	646
720.472	655.2
720.881	685.2
721.29	662.4
721.699	646.4
722.108	663
722.517	658.4
722.926	657.2
723.335	665.4
723.744	660.8
724.154	655.8
724.563	659.6
724.973	664.6
725.382	662.8
725.792	655.6
726.202	644.8
726.612	673.4
727.022	661
727.432	653.6
779.813	662
780.223	703.6
780.634	653.6
781.044	654.2
781.454	647.4
781.865	673.4
782.276	648.2
782.686	669.8
783.097	648.6
783.508	652.8
783.919	655.4
784.33	668.4
784.741	665.8
785.152	643
785.563	635
785.974	648.8
786.386	665.8
786.776	655.6
787.188	664.4
787.599	652.4
788.011	668.6
788.423	661.6
788.835	651.8
789.247	643.6
789.659	646.4
790.071	649
790.483	704.6
790.874	654.2
791.286	660.6
791.699	655.2
792.111	658
792.524	659.6
792.937	652.6
793.349	644.4
793.741	649.8
794.154	653.4
794.567	672
794.98	651
795.393	649.6
795.785	667.8
796.198	653.2
796.612	658.8
797.026	651.8
797.439	637.2
797.831	655.6
798.245	639.6
798.659	663.8
799.073	651
799.487	648.6
799.88	657.8
800.294	648.8
800.708	657.2
801.123	655.4
801.516	678
801.93	646.6
802.345	633
802.76	655.2
803.153	667.4
803.568	671.2
803.983	666.8
804.377	665
804.792	645.8
805.207	644
805.601	662.4
806.016	694.6
806.432	652
806.826	684
807.242	677.8
807.658	660.4
808.052	658.6
808.468	659.2
808.884	648.4
809.279	658.8
809.695	675.6
810.111	682.6
810.506	664.2
810.922	670.4
811.339	654.8
811.734	659.8
812.151	657
812.546	654.6
812.963	650.8
813.38	662.4
813.776	658.4
814.193	680.6
814.589	652.4
815.006	655.4
815.402	657
815.82	646.4
816.237	661.6
816.633	655.4
817.051	653.2
817.448	665.6
817.866	651.8
818.262	676.6
818.68	656.8
819.077	647.8
819.495	662
819.892	713
820.311	642
820.708	654
821.127	650
821.524	665.4
821.943	656.6
822.34	672.2
822.759	661
823.157	663.8
823.576	671
823.974	665.6
824.393	780.4
824.791	646.4
825.189	644.4
825.609	652.6
826.007	655.8
826.427	645.4
826.826	654.2
827.246	663.2
827.644	650
828.043	665.4
828.463	654.2
828.862	664.8
829.261	661.6
829.682	634.6
830.081	656.6
830.502	650.8
830.901	661
831.301	649.4
831.722	641.6
832.121	664.6
832.521	658.2
832.943	654.6
833.342	647.4
833.742	655
834.164	658.4
834.564	655.8
834.965	665.8
835.386	655
835.787	654.8
836.188	657.2
836.588	652.6
837.01	652.2
837.411	650.8
837.812	667.4
838.213	668.4
838.636	654.6
839.037	724
839.438	659.4
839.84	659.6
840.263	663.4
840.664	666.2
841.066	653.6
841.468	656
841.891	649
842.293	666.6
842.695	664.6
843.098	668.8
843.5	650
843.902	667
844.326	668.6
844.729	658.6
845.131	666.2
845.534	652.2
845.937	672.4
846.34	681
846.764	652.2
847.167	656
847.571	641.4
847.974	659.4
848.377	654
848.781	704.2
849.184	664
849.588	651
849.992	648.8
850.396	649.8
850.821	676.6
851.225	654.4
851.63	648.4
852.034	670.8
852.438	657.8
852.843	693.8
853.247	637.8
853.652	651.2
854.057	672
854.462	657.4
854.867	662.4
855.272	688.4
855.677	658
856.082	649.8
856.487	647.2
856.893	662.4
857.298	657.4
857.704	651.4
858.11	664.4
858.516	671.8
858.922	650.2
859.328	663.4
859.734	656.4
860.14	660
860.525	660.4
860.931	637.2
861.338	650.8
861.745	663.2
862.151	668.6
862.558	652.4
862.965	657.2
863.372	650.2
863.779	653
864.186	675.2
864.572	648.2
864.98	673
865.387	691.2
865.795	653.4
866.203	668.8
866.61	637.8
867.018	660.6
867.405	660.2
867.813	651.8
868.221	658
868.63	652.8
869.038	660
869.425	695.2
869.834	657
870.243	643.8
870.652	635.8
871.039	652.6
871.448	636.8
871.857	653
872.266	656.4
872.654	649.2
873.064	649.8
873.473	660.8
873.883	650.4
874.271	646.2
874.681	665.4
875.091	639.8
875.48	658
875.89	677
876.3	646
876.689	638.6
877.1	646
877.51	650.2
877.9	670.6
878.31	645.2
878.721	684.6
879.111	660
879.522	652.6
879.933	643.8
880.323	639.2
880.734	646.2
881.125	657
881.536	647.2
881.948	649
882.338	645
882.75	660.2
883.141	651.8
883.553	651.4
883.944	688.2
884.356	652.8
884.769	650.6
885.16	653.6
885.573	654
885.964	644
886.377	653.6
886.768	639.8
887.181	646.2
887.573	640.8
887.987	651.6
888.378	665.2
888.792	661.4
889.184	716.4
889.598	645
889.99	649.4
890.383	655
890.797	647.4
891.19	661.2
891.604	650.4
891.997	645.4
892.411	644.6
892.805	652.8
893.198	651.6
893.613	645.8
894.006	657
894.421	639.2
894.815	645.4
895.209	656.2
895.624	704.2
896.018	689.4
896.412	645
896.828	653.2
897.222	657.8
897.617	647.6
898.033	671.8
898.427	654.6
898.822	650.6
899.239	636.4
899.634	639
900.029	668.6
900.424	641.8
900.841	637.8
901.236	665.4
901.632	656.8
902.027	723.4
902.445	657.6
902.841	656
903.237	652.8
903.633	668.2
904.05	671
904.447	660.2
904.843	653.4
905.24	654.4
905.636	646.2
906.033	652.6
906.451	661.2
906.848	646
907.246	652.2
907.643	651.4
908.04	651.8
908.438	668.4
908.835	662
909.254	648.2
909.652	661.4
910.05	646
910.448	645.2
910.846	659
911.244	644
911.643	651.8
912.041	658
912.44	671.6
912.839	647
913.237	653
913.636	651.8
914.035	669
914.434	642
914.834	664.6
915.233	660.6
915.633	645
916.032	644.6
916.432	646.8
916.832	664.6
917.232	648.4
917.632	647
918.032	653.4
918.432	657.4
918.833	655.6
919.233	646.4
919.634	643.6
920.035	663.2
920.436	654.6
920.837	654.8
921.238	642.6
921.639	653.6
922.019	658.2
922.42	657.2
922.822	655.2
923.224	644.6
923.625	656.6
924.027	647.8
924.429	674.8
924.81	658.6
925.212	668.4
925.615	649.8
926.017	648.4
926.42	661.8
926.801	655
927.204	655
927.607	665.6
928.01	670.8
928.413	654.4
928.795	641
929.199	652.6
929.602	651.8
930.006	646
930.388	648.8
930.792	650.4
931.196	657.4
931.579	687
931.983	651
932.388	704
932.771	648.6
933.176	642
933.58	658.6
933.964	662
934.369	636.6
934.774	658.4
935.158	648.2
935.563	654.8
935.947	658.6
936.353	655
936.759	646.6
937.143	662.6
937.549	656.6
937.934	675.6
938.34	678.6
938.746	642.2
939.131	657.2
939.538	644
939.923	658.8
940.33	652.4
940.716	648.8
941.123	660.2
941.508	662.6
941.916	671.6
942.302	657.4
942.709	647.6
943.096	643.8
943.503	659.6
943.89	645.6
944.298	651.6
944.685	676
945.072	650.4
945.48	668.2
945.867	639.2
946.276	650.8
946.663	680.4
947.051	668.2
947.46	667.8
947.848	649.8
948.257	647.4
948.645	644.8
949.033	647.6
949.443	649.8
949.831	698.6
950.22	638.2
950.63	663.4
951.018	684.8
951.407	648.6
951.796	642
952.207	657.4
952.596	663.4
952.985	639
953.375	700.8
953.786	654.2
954.176	640.8
954.566	666
954.956	638.4
955.367	651.2
955.758	690
956.148	643.8
956.539	657.2
956.929	645.8
957.341	642
957.732	655.8
958.123	660.8
958.515	647.4
958.906	656.6
959.297	647.6
959.689	647.6
960.102	644.6
960.494	661
960.886	645.8
961.278	647.8
961.67	679.2
962.062	687.8
962.455	654
962.847	641.8
963.24	655.8
963.633	649.6
964.026	640
964.419	654.4
964.812	665
965.206	651.4
965.599	657.4
965.993	653.6
966.386	645.4
966.78	662
967.174	656.8
967.569	647
967.963	640.8
968.357	635.8
968.752	645.4
969.146	642.6
969.541	639.2
969.936	646.4
970.331	648
970.705	641
971.1	647.8
971.496	652
971.892	638.6
972.287	651.2
972.683	651.6
973.079	644.4
973.454	654.6
973.85	650.6
974.247	659.2
974.643	674.8
975.04	655.6
975.415	646.8
975.812	641
976.209	650.8
976.607	638.6
976.982	651
977.38	668.4
977.778	648.2
978.175	639.2
978.552	655.2
978.95	656
979.348	655.4
979.725	712
980.123	648
980.522	648.8
980.899	640.4
981.298	646
981.697	649.8
982.075	642.4
982.474	635.4
982.852	644.8
983.251	650.6
983.651	651.6
984.029	647.8
984.429	649.4
984.808	632.6
985.208	638
985.609	627.8
985.987	631.8
986.388	636.6
986.768	650.8
987.168	642.2
987.548	658.4
987.949	660
988.329	651.2
988.731	631
989.111	653
989.491	650.2
989.893	649
990.273	658.2
990.676	637.4
991.057	630.4
991.459	653
991.84	648.8
992.221	633.2
992.624	665.8
993.006	658.8
993.388	650.6
993.791	655
994.173	660.8
994.576	679
994.959	638.4
995.341	647.8
995.724	646.6
996.128	644.8
996.511	653.8
996.894	643
997.298	650.2
997.681	657.2
998.065	649.4
998.448	646.8
998.854	657.6
999.237	640.8
999.621	654
1000.01	668
1000.39	648.4
1000.8	646.6
1001.18	661.2
1001.56	654.8
1001.95	657.4
1002.33	659
1002.72	642.4
1003.13	651.2
1003.51	651
1003.9	651.6
1004.28	678.2
1004.67	653.4
1005.06	654.8
1005.44	674.4
1005.83	636
1006.21	650.4
1006.6	647.4
1006.99	661.8
1007.37	657.2
1007.76	649
1060.12	637.2
1060.51	642.8
1060.89	661.8
1061.28	660.2
1061.67	664
1062.06	651.2
1062.45	650.2
1062.83	646.8
1063.22	660
1063.61	696
1064	663.8
1064.39	653
1064.78	644.6
1065.14	667
1065.53	650.4
1065.92	648.6
1066.31	635.8
1066.7	663
1067.09	666.6
1067.46	653.2
1067.85	650
1068.24	649.8
1068.63	658.8
1069.02	642.8
1069.39	659.2
1069.78	632.6
1070.17	649
1070.57	648.6
1070.93	660.4
1071.33	642.8
1071.72	657.6
1072.11	637.2
1072.48	642
1072.87	645
1073.26	650.4
1073.64	638.8
1074.03	647.8
1074.4	639.8
1074.79	648.6
1075.19	636.2
1075.56	654.8
1075.95	652.4
1076.34	652.2
1076.72	652.4
1077.11	653.2
1077.48	665
1077.88	646.4
1078.25	647.4
1078.64	657
1079.02	656
1079.41	655.2
1079.78	649.6
1080.18	645.8
1080.55	719.6
1080.95	638.4
1081.32	632.2
1081.72	652.2
1082.09	653.8
1082.49	646.8
1082.86	643.6
1083.24	640
1083.63	635.6
1084.01	649.8
1084.38	655
1084.78	643.2
1085.16	643.8
1085.55	663
1085.93	662.8
1086.31	639
1086.7	686.6
1087.08	646
1087.46	645.4
1087.83	633.6
1088.23	657
1088.61	645
1088.99	646.8
1089.36	651.2
1089.76	644.8
1090.14	646
1090.52	650.4
1090.9	641
1091.27	648.2
1091.67	680
1092.05	656
1092.43	645.8
1092.81	657.6
1093.19	654.4
1093.57	645
1093.95	646.2
1094.35	664.6
1094.73	661
1095.11	634.6
1095.49	632.2
1095.87	642.8
1096.25	670.6
1096.63	648
1097.01	655
1097.39	649.4
1097.77	652.2
1098.15	651.4
1098.53	648
1098.91	645
1099.29	636.6
1099.68	666.8
1100.06	660.4
1100.44	650.4
1100.82	648.6
1101.18	649.4
1101.56	641.4
1101.95	639.8
1102.33	653
1102.71	648.8
1103.1	641.8
1103.48	636
1103.86	636.2
1104.22	647.2
1104.61	655
1104.99	643.6
1105.38	640.4
1105.76	644.4
1106.12	647.4
1106.51	688.8
1106.89	661
1107.26	651
1107.64	658.8
1108.03	647.6
1108.41	643
1108.78	645.2
1109.16	646.6
1109.55	653.6
1109.91	643.2
1110.3	632.4
1110.69	667.8
1111.05	644.8
1111.44	648.4
1111.8	649.4
1112.19	651
1112.58	649.6
1112.94	646.2
1113.33	647
1113.7	643.6
1114.09	639.6
1114.45	634.2
1114.84	651.8
1115.21	658
1115.6	650.2
1115.96	660.8
1116.35	647.2
1116.72	643.8
1117.11	657
1117.48	637.2
1117.85	643.2
1118.24	657.6
1118.6	644.2
1118.99	631
1119.36	652.6
1119.73	641
1120.12	648
1120.49	637.2
1120.86	654.4
1121.25	642.4
1121.62	630
1121.99	647.2
1122.38	658
1122.76	646
1123.13	638.4
1123.5	652.2
1123.89	657.6
1124.26	635
1124.63	653.6
1125	642.4
1125.4	638.2
1125.77	645.4
1126.14	631
1126.51	646
1126.88	652.4
1127.26	648.4
1127.63	624.4
1128.02	642.4
1128.4	640.6
1128.77	638.4
1129.14	639.2
1129.52	649.8
1129.89	648.4
1130.26	632.4
1130.64	640
1131.01	645.4
