#lambda/nm	C1
208.295	544
208.67	488.2
209.045	462.4
209.419	454.4
209.794	694.2
210.169	668.4
210.544	815.6
210.919	691.2
211.295	689.8
211.67	690.4
212.045	689
212.421	684.8
212.796	732.2
213.172	684.6
213.547	691.4
213.923	685.6
214.299	686.6
214.675	692.6
215.051	696.2
215.427	700.4
215.803	711.2
216.179	701.2
216.555	678.4
216.932	695
217.308	690.8
217.684	695
218.061	694.2
218.438	698.4
218.814	683
219.191	700.6
219.568	679
219.945	684.2
220.322	696.8
220.699	701.6
221.076	701
221.453	695.4
221.83	683.8
222.208	687.2
222.585	688.4
222.962	698
223.34	693.6
223.717	692.6
224.095	703.6
224.473	693
224.851	690.6
225.229	676.8
225.607	705
225.985	681.6
226.363	691.4
226.741	683.8
227.119	680
227.497	707
227.876	678.8
228.254	697.4
228.633	694.6
229.011	694.2
229.39	691.8
229.769	694.2
230.148	699.6
230.527	716
230.905	686
231.284	693.6
231.664	689.2
232.043	711.2
232.422	699.8
232.801	683.6
233.181	705.2
233.56	693.8
233.94	686.4
234.319	674.8
234.699	689
235.079	749.4
235.458	733.4
235.838	712.4
236.218	677.8
236.598	682.6
236.978	687
237.358	695.6
237.738	695.8
238.119	690.6
238.499	673.6
238.88	691
239.26	702.4
239.641	676.6
240.021	687.6
240.402	686.4
240.783	688.8
241.163	697.6
241.544	685.4
241.925	693.6
242.306	709
242.687	683.4
243.069	690.8
243.45	697.8
243.831	686.8
244.212	690
244.594	725.4
244.975	693.8
245.357	697.6
245.739	676.4
246.12	682
246.502	712.2
246.884	686.2
247.266	682.6
247.648	689
248.03	720.4
248.412	688.2
248.794	693.2
249.176	679.8
249.559	700.8
249.941	688.4
250.323	684.2
250.706	681.8
251.089	694.2
251.471	701.8
251.854	689
252.237	685.8
252.62	707
253.002	688.8
253.385	694.8
253.769	701.8
254.152	691.4
254.535	698.8
254.918	676.6
255.301	695
255.685	689
256.068	670.4
256.452	715.8
256.835	695.6
257.219	707.2
257.603	715.2
257.986	693.6
258.37	692.8
258.754	684.6
259.138	706.4
259.522	702.6
259.906	685
260.29	701.6
260.675	681.2
261.059	694.8
261.443	675.6
261.828	696.4
262.212	695.2
262.597	676.6
262.981	682.2
263.366	696.2
263.751	691.8
264.136	691.2
264.521	693.2
264.906	695.4
265.291	697.8
265.676	680.2
266.061	700.2
266.446	705.8
266.831	688.4
267.217	724.4
267.602	700.2
267.987	686
268.373	686
268.759	709.4
269.144	703.2
269.53	691
269.916	694
270.302	691
270.688	692.6
271.074	699
271.46	703.2
271.846	738.8
272.232	689.2
272.618	684.8
273.004	685.6
273.391	696.8
273.777	696.4
274.164	691.2
274.55	707.8
274.937	693.4
275.324	682.4
275.71	703.2
276.097	699.2
276.484	685.2
276.871	703.4
277.258	700.6
277.645	683.2
278.032	698.2
278.419	693.4
278.807	696.6
279.194	686
279.581	680.2
279.969	694.8
280.356	692.6
280.744	695
281.131	722.6
281.519	708.2
281.907	688.4
282.295	691.4
282.682	705.2
283.07	702.4
283.458	699.8
283.846	711.4
284.235	710.6
284.623	704.6
285.011	684.4
285.399	696
285.788	691
286.176	675
286.565	710.2
286.953	677.6
287.342	684.2
287.731	682.2
288.119	685.6
288.508	681.4
288.897	697.6
289.286	671
289.675	685
290.064	700.4
290.453	682
290.821	693
291.21	708.4
291.599	682.4
291.989	695.4
292.378	704.8
292.768	712.2
293.157	702.2
293.547	705.2
293.936	685.2
294.326	683.4
294.716	697.4
295.106	685.6
295.496	704
295.886	704.8
296.276	697
296.666	683.4
297.056	686.6
297.446	680
297.836	709.2
298.227	692.6
298.617	697.6
299.008	713.4
299.398	695
299.789	685.2
300.179	701
300.57	708.4
300.961	693
301.352	688.8
301.742	703.8
302.133	693.8
302.524	697.2
302.915	694
303.307	684.6
303.698	701
304.089	698.2
304.48	690.4
304.872	701.8
305.263	694
305.655	686.2
306.046	697
306.438	697
306.829	680.4
307.221	711.2
307.613	700.2
308.005	712.2
308.397	708
308.789	716.8
309.181	724.8
309.573	717.6
309.965	706
310.357	694
310.749	718.4
311.142	680.2
311.534	685.2
311.926	703.4
312.319	698.6
312.711	684.4
313.104	719.4
313.497	686
313.889	741.8
314.282	708
314.675	712.2
315.068	699.8
315.461	707.8
315.854	731.8
316.247	693.2
316.64	689.6
317.033	692.6
317.405	707.6
317.798	689.6
318.192	702.4
318.585	681.8
318.979	698.8
319.372	686.2
319.766	693.6
320.16	704.2
320.553	719.2
320.947	718.8
321.341	689.6
321.735	694.4
322.129	670.6
322.523	725
322.917	690
323.311	707.2
323.705	695.4
324.099	700.6
324.494	713.6
324.888	714.6
325.282	694.2
325.677	708.6
326.071	707.6
326.466	707
326.861	702
327.255	713.2
327.65	716.6
328.045	714.2
328.44	704
328.835	690
329.23	691.2
329.625	729.4
330.02	698
330.415	714.8
330.81	704.2
331.206	703
331.601	689.2
331.996	709
332.37	720
332.766	685.8
333.161	724.4
333.557	688
333.953	692.4
334.348	1141.8
334.744	698.4
335.14	695.8
335.536	697.2
335.932	711.4
336.328	697
336.724	699
337.12	698.2
337.516	704.6
337.913	697.4
338.309	712.8
338.705	702.6
339.102	702.6
339.498	689.2
339.895	709.6
340.291	692.6
340.688	707.8
341.085	678.6
341.481	690
341.878	694.6
342.275	708.2
342.672	686.6
343.069	685
343.466	683.4
343.842	705.8
344.239	684.6
344.636	702.6
345.033	686.2
345.431	685.4
345.828	689.8
346.225	686.8
346.623	741.2
347.02	700.2
347.418	709
347.816	714
348.213	685.4
348.611	708.2
349.009	691.2
349.407	714
349.805	683.6
350.203	682.4
350.601	698.8
350.999	693.6
351.397	764
351.795	696.8
352.193	709.6
352.57	705.4
352.969	707.6
353.367	675
353.766	690.4
354.164	691.8
354.563	708.6
354.961	692
355.36	684
355.759	694.2
356.158	678.8
356.557	687.8
356.956	680
357.355	685.2
357.754	693.8
358.153	693.6
358.552	717.2
358.951	690
359.35	702.8
359.75	683
360.149	684
360.527	678.8
360.926	679.2
361.326	689.4
361.726	681.6
362.125	685.6
362.525	696.2
362.925	692.6
363.325	686
363.724	699.4
364.124	678.6
364.524	680
364.924	686
365.324	696
365.725	664.4
366.125	690
366.525	689
366.904	676.6
367.304	675.2
367.705	709.8
368.105	694.4
368.506	678.4
368.906	685.8
369.307	682
369.708	699.8
370.108	672
370.509	700.8
370.91	671.4
371.311	691.8
371.712	694.4
372.113	683.6
372.514	672.8
372.894	682.4
373.295	686.4
373.696	699.8
374.097	695.8
374.499	721.8
374.9	690.4
375.301	672.2
375.703	691.8
376.105	678.4
376.506	687.6
376.908	685.6
377.309	685.4
377.711	688.6
378.113	682.8
378.493	677.6
378.895	676
379.297	708
379.699	676.4
380.102	694.6
380.504	692.2
380.906	684.4
381.308	723.4
381.71	685.8
382.113	697.4
382.515	680.6
382.918	691
383.299	678.4
383.701	695.8
384.104	685
384.507	672.8
384.909	681
385.312	674.4
385.715	675
386.118	689.2
386.521	670.6
386.924	700.6
387.327	677.6
387.709	673
388.112	676
388.515	687.4
388.918	680.8
389.322	678.6
389.725	674.4
390.129	700
390.532	687.8
390.936	679.8
391.339	683.6
391.743	684.6
392.125	676.8
392.529	692.4
392.933	704.2
393.337	680.2
393.74	675
394.144	680.8
394.548	673
394.953	680.4
395.357	693.2
395.761	682.2
396.144	676.8
396.548	675
396.952	685
397.357	689.2
397.761	685.4
398.166	673
398.57	673.6
398.975	671.4
399.379	692.4
399.763	743
400.168	689.6
400.572	684
400.977	683.6
401.382	701.4
401.787	699.8
402.192	708.4
402.597	711.4
403.002	683.2
403.386	706.2
403.791	709.2
404.197	674.6
404.602	688.4
405.007	695.4
405.413	690
405.818	696.2
406.224	678
406.608	683
407.014	676.4
407.42	699.8
407.825	674.6
408.231	692.6
408.637	695.8
409.043	699.8
409.449	686.2
409.834	673.4
410.24	689.4
410.646	703.6
411.052	689.6
411.458	686.2
411.865	697
412.271	695.2
412.677	686.8
413.062	694.6
413.469	678
413.875	710.4
414.282	696.2
414.689	689
415.095	694.4
415.502	668.4
415.888	685.8
416.294	666.8
416.701	729.2
417.108	674
417.515	701
417.923	689.4
418.33	709.2
418.715	697.2
419.123	679.4
419.53	688.2
419.937	692.4
420.345	713.6
420.752	685.8
421.16	696.2
421.546	680
421.953	699.4
422.361	668.8
422.769	683.6
423.177	680.6
423.585	711.4
423.992	712.8
424.379	703.4
424.787	704.8
425.195	713.2
425.603	693.4
426.011	702.8
426.419	696.4
426.806	695.4
427.214	692.6
427.623	714
428.031	705
428.44	687.2
428.848	703.6
429.235	710
429.644	690.2
430.053	687.8
430.461	709.6
430.87	729.2
431.279	703.8
431.666	679.8
432.075	693
432.484	690.4
432.893	683.2
433.302	706.8
433.711	745.6
434.099	697.2
434.508	692.2
434.918	678.2
435.327	706.6
435.737	690.4
436.125	691.6
436.534	693.8
436.944	693.6
437.353	699.6
437.763	725.2
438.173	691.8
438.561	711.2
438.971	672.2
439.381	693.6
439.791	694.6
440.201	679
440.589	688.6
440.999	697.8
441.409	697.2
441.819	681.8
442.23	702
442.619	697.8
443.029	699
443.439	700
443.85	707.6
444.26	705.2
444.649	698.6
445.06	688.2
445.471	688.2
445.881	689.8
446.292	716
446.682	717.8
447.092	678.6
447.503	753.8
447.914	692.8
448.325	682.8
448.715	694
449.126	688.4
449.537	687
449.948	692.6
450.338	693.6
450.75	697.2
451.161	699
451.572	696.6
451.984	681.8
452.374	667.4
452.786	685.6
453.197	694.2
453.609	702.2
453.999	683
454.411	677.2
454.823	699.6
455.235	689
455.647	686.6
456.037	685.8
456.449	671.4
456.862	690.6
457.274	688.4
457.665	677.6
458.077	682.2
458.489	717.4
458.902	689
459.293	691.4
459.705	682
460.118	682.4
460.53	705.6
460.921	692.4
461.334	693
461.747	677.4
462.16	706.2
462.551	709
462.964	695.8
463.377	668.6
463.79	687.2
464.182	695
464.595	684.8
465.008	691.4
465.421	691
465.813	688.8
466.226	698.6
466.64	690.8
467.053	744.2
467.445	698.6
467.859	714.8
468.272	690.6
468.686	699.6
469.078	683.2
469.492	672.4
469.906	678.2
470.298	689.6
470.712	681.4
471.126	737.4
471.54	673.8
471.933	681.2
472.347	690.2
472.761	679
473.175	681.2
473.568	675
473.982	676.6
474.397	691.2
474.79	684.6
475.204	697.4
475.619	688.6
476.033	682
476.426	696
476.841	681.6
477.256	711.4
477.649	666.2
478.064	678
478.479	679.4
478.872	686.2
479.287	673.8
479.702	691
480.118	686.8
480.511	682
480.927	683.6
481.342	676.2
481.736	686.8
482.151	685.6
482.566	693.8
482.96	688.4
483.376	703.2
483.792	678.6
484.186	691
484.602	682.6
485.017	672.6
485.412	682.6
485.827	684
486.243	683.2
486.638	706.6
487.054	695.8
487.47	704.2
487.865	693
488.281	679.6
488.697	674.4
489.092	688
489.508	669.4
489.925	695.8
490.32	672.6
490.736	699.2
491.153	684.4
491.548	681.4
491.964	687
492.381	667.4
492.776	685.6
493.193	676.8
493.61	688
494.006	678.8
494.422	681
494.84	666.8
495.235	685.4
495.652	671
496.069	685
496.465	673.2
496.883	687.6
497.3	696
497.696	675.2
498.113	689
498.509	661.6
498.927	672.2
499.344	678.8
499.741	677.2
500.158	690.4
500.576	692.2
500.973	677.8
501.39	674.4
501.787	669.4
502.205	683.2
502.623	673.2
503.02	669.8
503.438	676.2
503.856	673.4
504.253	687.4
504.671	689.8
505.068	674.6
505.486	675.2
505.905	704.8
506.302	680.4
506.72	684
507.118	666
507.536	678.2
507.955	683.8
508.352	683.4
508.771	690.8
509.169	692.4
509.587	682
510.006	678.6
510.404	680.6
510.823	669.6
511.221	678
511.64	679
512.038	695.8
512.457	670
512.877	669
513.275	672.8
513.694	674
514.092	667
514.512	679.8
514.91	672.4
515.33	666.8
515.749	677.6
516.148	677.8
516.568	684.2
516.966	679
517.386	678.2
517.785	666.4
518.205	665.6
518.603	666.4
519.024	662.6
519.444	687.8
519.843	688.2
520.263	700.4
520.662	676.4
521.082	670
521.481	674.6
521.902	670.8
522.301	687.6
522.722	687.8
523.121	677
523.542	674
523.963	681.8
524.362	685
524.783	680.2
525.183	680.6
525.604	682
526.003	668.4
526.425	673.4
526.824	685.6
527.246	688.2
527.646	687.2
528.067	677.8
528.467	673
528.888	679
529.289	674.8
529.71	679.6
530.11	677.2
530.532	674
530.932	678
531.354	667.6
531.755	717
532.176	685.4
532.577	681.6
532.999	679
533.4	676
533.822	683.8
534.223	680
534.645	680.4
535.046	674.4
535.468	680.6
535.869	686.2
536.292	664.8
536.693	718
537.115	682.6
537.516	667.2
537.939	665.8
538.34	695.8
538.742	693.8
539.165	691.8
539.566	680.4
539.989	666.4
540.391	671.4
540.814	669.2
541.216	679
541.639	672.8
542.041	691
542.464	675.6
542.866	669.6
543.268	661.6
543.691	673.8
544.093	676
544.517	699
544.919	668
545.343	703
545.745	665.4
546.147	674.8
546.571	678.4
546.974	662.4
547.398	676.2
547.8	691
548.224	665.8
548.627	675.2
549.03	679
549.454	661.4
549.857	663
550.281	669.6
550.684	668.4
551.087	680.2
551.512	672.8
551.915	678
552.34	668.8
552.743	675.4
553.146	678.6
553.571	673.2
553.975	700
554.399	667.6
554.803	727.8
555.207	667.8
555.632	652.4
556.036	681.4
556.461	670.2
556.865	663.6
557.268	672.6
557.694	665
558.098	677.8
558.502	679.2
558.927	657.4
559.332	670.8
559.736	670.6
560.162	668.4
560.566	664.8
560.992	677.2
561.396	676
561.801	668.4
562.227	671
562.631	674
563.036	673.6
563.462	682.2
563.867	676.4
564.272	657.6
564.698	676.8
565.103	664
565.508	692.6
565.935	672.4
566.34	669.2
566.745	692.4
567.172	664.6
567.577	693.4
567.982	684.8
568.409	679.6
568.815	666.6
569.22	669.2
569.626	674.8
570.053	661.4
570.459	673.2
570.865	688.8
571.292	686
571.698	673.6
572.104	657.4
572.531	670.8
572.937	680.6
573.343	678.8
573.75	674.8
574.177	670.8
574.583	681.6
574.99	676.2
575.396	673.8
575.824	663.2
576.231	679
576.637	664.8
577.065	695.6
577.472	672.4
577.879	666.2
578.286	682.6
578.714	666.6
579.121	666
579.528	678.8
579.935	685.2
580.364	667.6
580.771	647
581.178	666.6
581.585	672.6
582.014	682.8
582.421	666.4
582.829	676.6
583.236	675.2
583.644	660.6
584.073	666
584.481	674.6
584.889	663.8
585.296	669.6
585.726	679
586.134	660.8
586.542	662.2
586.95	689.6
587.358	660.2
587.787	666.4
588.196	653.6
588.604	661
589.012	674.2
589.421	665.6
589.851	666.2
590.259	673.6
590.668	668.6
591.076	713.6
591.485	659.2
591.894	675.8
592.324	679.6
592.733	695.2
593.142	655
593.551	673
593.96	714.4
594.369	671.4
594.8	662.4
595.209	670
595.618	656.6
596.028	668
596.437	651.6
596.847	666.2
597.256	664.2
597.687	676.2
598.097	667.4
598.507	650.8
598.917	673.8
599.327	670.2
599.736	657.8
600.146	672.2
600.556	663.6
600.988	683
601.398	658.2
601.808	671.6
602.219	652.4
602.629	661.4
603.039	665
603.45	694.4
603.86	671.2
604.271	683.8
604.703	671
605.114	662
605.525	673.8
605.935	676.2
606.346	688.6
606.757	679.2
607.168	669.4
607.579	665
607.99	688.4
608.402	673
608.813	682
609.224	654.6
609.636	657.6
610.047	669.8
610.48	663
610.892	684
611.303	682.2
611.715	667.8
612.127	663
612.539	666.4
612.95	674
613.362	658.6
613.774	653.4
614.186	651.4
614.599	657.4
615.011	677.4
615.423	666.8
615.835	667.8
616.248	656
616.66	673.2
617.073	656.4
617.485	663.8
617.898	669.4
618.311	656.4
618.723	654.4
619.136	695.6
619.549	680.2
619.962	688.2
620.375	661
620.788	665
621.201	662.6
621.614	671.2
622.028	665.4
622.441	673.2
622.854	682.4
623.268	667.2
623.681	676.8
624.095	664.2
624.509	670.8
624.922	674
625.336	656.6
625.728	658.6
626.142	682.2
626.556	686.4
626.97	674.4
627.384	658
627.799	662.2
628.213	685.4
628.627	664.2
629.041	659.8
629.456	655.4
629.87	663
630.285	678.6
630.699	675.2
631.093	660.6
631.507	668.6
631.922	671
632.337	683.4
632.752	658.8
633.167	660.2
633.582	668.6
633.997	668
634.412	658
634.806	669
635.221	663.6
635.637	675.2
636.052	661.8
636.468	658.6
636.883	685.8
637.299	661.6
637.715	655.4
638.109	662.8
638.525	651
638.941	683.8
639.357	672
639.773	672.6
640.189	672
640.584	670.8
641	669.4
641.416	658.4
641.832	653.2
642.249	664
642.665	661.8
643.06	667
643.477	673.6
643.894	657.8
644.31	671.6
644.727	668.6
645.123	665
645.54	657.4
645.957	671.6
646.374	670.4
646.77	675.4
647.187	694.8
647.604	663.8
648.021	659.8
648.439	663.8
648.835	668
649.252	672.4
649.67	673.2
650.088	669
650.484	671.2
650.902	672
651.32	669.8
651.738	661.2
652.134	661.6
652.552	691
652.971	677.6
653.389	664.2
653.786	682.6
654.204	685.2
654.622	659
655.019	671.8
655.438	669.4
655.857	671.2
656.275	669.2
656.673	661.4
657.091	753.8
657.51	663.4
657.908	669.8
658.327	679.8
658.746	654.4
659.144	668.6
659.563	679.8
659.982	674.2
660.38	659.2
660.8	665.2
661.219	683.2
661.617	670.4
662.037	662.6
662.457	674.2
662.855	642.8
663.275	703.6
663.695	658.8
664.094	666.8
664.514	669
664.934	660
665.333	678.2
665.753	663.2
666.152	654.2
666.572	667
666.993	679.8
667.392	657.6
667.812	667.4
668.212	664.6
668.632	669.2
669.053	660
669.453	672.4
669.874	669.2
670.273	665.4
670.694	663.8
671.116	686.2
671.515	683
671.937	666.8
672.337	661
672.758	656.2
673.158	674
673.58	662.4
673.98	665.2
674.402	672
674.824	670.2
675.224	661.2
675.646	660
676.047	663.4
676.469	666.2
676.869	670.2
677.292	672.2
677.693	655.2
678.115	651.4
678.516	669
678.939	665
679.34	659.2
679.762	678.6
680.164	671.6
680.586	654
680.988	663
681.411	684.4
681.812	666
682.236	660.6
682.637	650.4
683.061	652.6
683.462	662
683.864	665.2
684.288	670.2
684.69	648.4
685.114	670.6
685.516	679
685.94	650.2
686.342	671.6
686.766	662.8
687.168	667
687.571	681.6
687.995	665.6
688.398	656.6
688.822	659.2
689.225	681.8
689.628	686.6
690.052	673.4
690.456	668
690.88	668.4
691.284	660
691.687	674
692.112	646.8
692.515	655
692.919	671.4
693.344	675.6
693.747	669.4
694.173	659.4
694.577	677.4
694.98	671
695.406	660.4
695.81	671.8
696.214	671.8
696.64	664.8
697.044	669.6
697.448	669.2
697.874	662.6
698.279	669
698.684	654.4
699.11	651.4
699.514	658.2
699.919	660.6
700.324	652.2
700.75	659
701.156	657
701.561	673
701.987	669.2
702.393	672.8
702.798	670
703.203	658
703.63	649.4
704.036	661.8
704.442	671
704.847	637
705.274	665.4
705.68	667.6
706.086	674.6
706.492	646.8
706.92	667.2
707.326	668.6
707.732	665
708.139	652.4
708.545	657.2
708.973	657.2
709.38	659.8
709.786	652.6
710.193	684.4
710.6	666.2
711.028	654.2
711.435	664.8
711.842	664.4
712.249	669.4
712.656	672.2
713.064	671.4
713.492	658.6
713.9	661.2
714.307	667
714.715	666.8
715.123	656.2
715.53	669.2
715.938	674.8
716.367	664.8
716.775	656.6
717.184	655.2
717.592	664
718	683.8
718.408	698.4
718.816	713.4
719.225	666
719.633	662.4
720.042	652.8
720.472	656.2
720.881	681.2
721.29	666.2
721.699	655.8
722.108	677.4
722.517	663.6
722.926	659.8
723.335	679.6
723.744	662.8
724.154	667.8
724.563	660.2
724.973	670.4
725.382	651.2
725.792	662.6
726.202	655.2
726.612	676.8
727.022	659.8
727.432	660.8
779.813	662.2
780.223	711.2
780.634	657.8
781.044	653.6
781.454	659.4
781.865	673.8
782.276	652.6
782.686	673.6
783.097	666.6
783.508	659.8
783.919	665.6
784.33	673.2
784.741	676.2
785.152	657.4
785.563	647.4
785.974	662
786.386	678
786.776	656.2
787.188	657
787.599	651.2
788.011	663.6
788.423	671.2
788.835	669.2
789.247	653.6
789.659	659
790.071	661.2
790.483	709.6
790.874	657.6
791.286	672.6
791.699	671.2
792.111	654.4
792.524	670
792.937	659.6
793.349	651.4
793.741	658
794.154	656.8
794.567	685.4
794.98	665
795.393	652
795.785	678.4
796.198	659.4
796.612	665.2
797.026	655.2
797.439	636.8
797.831	660
798.245	646
798.659	658.4
799.073	660.8
799.487	655
799.88	655.4
800.294	660
800.708	661
801.123	663
801.516	688.2
801.93	647.2
802.345	653.6
802.76	664
803.153	677.6
803.568	684
803.983	677.6
804.377	660.6
804.792	652.6
805.207	641.8
805.601	654.2
806.016	704.2
806.432	661.2
806.826	688.6
807.242	679
807.658	662.2
808.052	657
808.468	654
808.884	659.4
809.279	665.6
809.695	673.4
810.111	680.6
810.506	673.2
810.922	683.2
811.339	663.4
811.734	675.2
812.151	652
812.546	660.4
812.963	658
813.38	676.4
813.776	662
814.193	689
814.589	652
815.006	658
815.402	653.8
815.82	650.2
816.237	662.2
816.633	658.6
817.051	643
817.448	663.6
817.866	650.6
818.262	681
818.68	648.2
819.077	650.6
819.495	659.8
819.892	712
820.311	656.2
820.708	655.6
821.127	655.6
821.524	671.8
821.943	669
822.34	683.2
822.759	670.6
823.157	657.2
823.576	682.2
823.974	677
824.393	790.8
824.791	659
825.189	655.6
825.609	646.4
826.007	659.2
826.427	654.2
826.826	660.8
827.246	670
827.644	651.4
828.043	663.8
828.463	648.6
828.862	668.6
829.261	676.8
829.682	655
830.081	672.8
830.502	652.2
830.901	663.8
831.301	665.4
831.722	641.8
832.121	662.4
832.521	647.4
832.943	653
833.342	658
833.742	645.4
834.164	646
834.564	650.4
834.965	661.2
835.386	657.4
835.787	658.2
836.188	655
836.588	661
837.01	656.2
837.411	658
837.812	660.2
838.213	669.8
838.636	653.6
839.037	735.2
839.438	666.2
839.84	661.8
840.263	665
840.664	662
841.066	648.4
841.468	661.8
841.891	654
842.293	672.8
842.695	667.8
843.098	671.2
843.5	662
843.902	670.8
844.326	681.6
844.729	666.4
845.131	668.8
845.534	659
845.937	668.6
846.34	678.2
846.764	660.2
847.167	662.4
847.571	654.8
847.974	665
848.377	656.2
848.781	716.2
849.184	673
849.588	655.8
849.992	651.2
850.396	664.8
850.821	681.8
851.225	665.2
851.63	658.4
852.034	669.2
852.438	662.4
852.843	718.2
853.247	654.6
853.652	660.6
854.057	679.8
854.462	667.4
854.867	665
855.272	700.8
855.677	660
856.082	647
856.487	648.8
856.893	660.2
857.298	655.8
857.704	646.8
858.11	653.6
858.516	672
858.922	657.8
859.328	668.8
859.734	659.4
860.14	661.4
860.525	662.6
860.931	641.6
861.338	653.8
861.745	662.8
862.151	667.2
862.558	662.4
862.965	658.6
863.372	653.2
863.779	656.2
864.186	670.8
864.572	667.6
864.98	669.6
865.387	694.8
865.795	659.6
866.203	666.6
866.61	647.4
867.018	676.2
867.405	673.8
867.813	663.2
868.221	656
868.63	651
869.038	666.4
869.425	711.6
869.834	667.2
870.243	655.2
870.652	656
871.039	654.6
871.448	668.2
871.857	665
872.266	665.2
872.654	671.8
873.064	654.6
873.473	659.6
873.883	663.4
874.271	650.6
874.681	667.4
875.091	644.6
875.48	669.4
875.89	675.4
876.3	652.6
876.689	646
877.1	652.8
877.51	655.6
877.9	674
878.31	653.2
878.721	690.6
879.111	666.2
879.522	656.2
879.933	653.4
880.323	646.6
880.734	649
881.125	666
881.536	650
881.948	657.2
882.338	663.4
882.75	663.2
883.141	658.8
883.553	667.6
883.944	688.4
884.356	659.8
884.769	654.6
885.16	665.2
885.573	651
885.964	645
886.377	661.6
886.768	647.2
887.181	655.8
887.573	653.6
887.987	671.8
888.378	674
888.792	661.4
889.184	717.8
889.598	650.8
889.99	659.8
890.383	653
890.797	649.2
891.19	673.2
891.604	652
891.997	640
892.411	650
892.805	650.8
893.198	653
893.613	643.6
894.006	658.2
894.421	650
894.815	660.4
895.209	653.6
895.624	709
896.018	674
896.412	654.2
896.828	643
897.222	656.8
897.617	657.2
898.033	687.6
898.427	663.2
898.822	660.2
899.239	651
899.634	650.2
900.029	680.2
900.424	657
900.841	637.8
901.236	664.2
901.632	664.6
902.027	722.4
902.445	669
902.841	661.2
903.237	660.6
903.633	674.8
904.05	667.4
904.447	666.8
904.843	670
905.24	660
905.636	653.4
906.033	644.4
906.451	667.2
906.848	651.6
907.246	657.8
907.643	664.4
908.04	663.4
908.438	681.4
908.835	662.8
909.254	659.6
909.652	669.4
910.05	655.4
910.448	653.8
910.846	660.6
911.244	658
911.643	666
912.041	661.4
912.44	681.6
912.839	654
913.237	648.8
913.636	651.6
914.035	664.4
914.434	649
914.834	673.8
915.233	675.6
915.633	658.8
916.032	647.8
916.432	651.8
916.832	676.6
917.232	654.6
917.632	644
918.032	659.4
918.432	651
918.833	654.8
919.233	648.4
919.634	639.6
920.035	673
920.436	652.8
920.837	657.2
921.238	642.6
921.639	644.8
922.019	661
922.42	657
922.822	665.2
923.224	651.4
923.625	654.6
924.027	656.6
924.429	685.8
924.81	661.8
925.212	659.8
925.615	663.2
926.017	658.6
926.42	664.6
926.801	651.6
927.204	653
927.607	666.8
928.01	674.8
928.413	656
928.795	638.8
929.199	650.4
929.602	654
930.006	652.6
930.388	645
930.792	667.6
931.196	659.4
931.579	691.4
931.983	641.8
932.388	707.2
932.771	655.6
933.176	646
933.58	660.6
933.964	666.8
934.369	645.8
934.774	655.8
935.158	656
935.563	654.6
935.947	658.8
936.353	663.6
936.759	664.2
937.143	661.4
937.549	663
937.934	670.8
938.34	680.2
938.746	659.2
939.131	652.8
939.538	643
939.923	657.6
940.33	654.6
940.716	658
941.123	655.2
941.508	663
941.916	681.4
942.302	660.6
942.709	638.4
943.096	646
943.503	660.2
943.89	655.8
944.298	652.6
944.685	687.6
945.072	650.6
945.48	675.2
945.867	650
946.276	644.8
946.663	689
947.051	674.4
947.46	668
947.848	661.6
948.257	655
948.645	651.4
949.033	658.4
949.443	646.8
949.831	702.2
950.22	652.2
950.63	660.2
951.018	701
951.407	648
951.796	650.4
952.207	664
952.596	665.4
952.985	648.4
953.375	708.6
953.786	657.2
954.176	643.2
954.566	661.8
954.956	634.4
955.367	650.2
955.758	683
956.148	638.4
956.539	668.6
956.929	642.2
957.341	637.6
957.732	639.6
958.123	662.6
958.515	640.6
958.906	652.8
959.297	642.8
959.689	653
960.102	643
960.494	656.2
960.886	649.8
961.278	648.8
961.67	681.4
962.062	689.2
962.455	659
962.847	655.4
963.24	649.8
963.633	657
964.026	640
964.419	661.2
964.812	660.6
965.206	653.4
965.599	662.8
965.993	655.2
966.386	651.8
966.78	661.2
967.174	670.4
967.569	650.4
967.963	644.2
968.357	647.6
968.752	643
969.146	648
969.541	646.2
969.936	651.8
970.331	673
970.705	650
971.1	665.2
971.496	667.8
971.892	652.6
972.287	661.4
972.683	654.2
973.079	652
973.454	662.2
973.85	660.2
974.247	665.4
974.643	681.8
975.04	657.8
975.415	651.4
975.812	643.8
976.209	654.4
976.607	644
976.982	660.6
977.38	672
977.778	647.2
978.175	658.4
978.552	654
978.95	662.6
979.348	668
979.725	705.2
980.123	653.2
980.522	651
980.899	651.2
981.298	643.6
981.697	665.4
982.075	649.8
982.474	643.6
982.852	643.6
983.251	655.6
983.651	646.2
984.029	655
984.429	650.6
984.808	641.6
985.208	655
985.609	642.4
985.987	641.2
986.388	659.6
986.768	655
987.168	652.4
987.548	659.4
987.949	657.8
988.329	652.6
988.731	641.2
989.111	653.2
989.491	647.4
989.893	655.8
990.273	663
990.676	641.6
991.057	638.2
991.459	645.4
991.84	648.6
992.221	645.2
992.624	667.8
993.006	653.6
993.388	654.2
993.791	665
994.173	662
994.576	699.2
994.959	637
995.341	654.6
995.724	664.8
996.128	659.2
996.511	663.8
996.894	648.4
997.298	648.8
997.681	654
998.065	653.4
998.448	658.8
998.854	664.6
999.237	648.4
999.621	667.2
1000.01	672.6
1000.39	661.2
1000.8	652
1001.18	667.4
1001.56	658
1001.95	666
1002.33	664.6
1002.72	649.6
1003.13	650.4
1003.51	654.6
1003.9	648
1004.28	673.8
1004.67	647.4
1005.06	660
1005.44	689.2
1005.83	638
1006.21	647.6
1006.6	657.2
1006.99	669.2
1007.37	666
1007.76	654.8
1060.12	647.6
1060.51	636.8
1060.89	654
1061.28	657
1061.67	676.2
1062.06	654.8
1062.45	655.2
1062.83	639
1063.22	665.2
1063.61	702.8
1064	663.4
1064.39	650
1064.78	649.2
1065.14	670
1065.53	655.2
1065.92	665.6
1066.31	656
1066.7	662.8
1067.09	665
1067.46	669
1067.85	652.6
1068.24	652.4
1068.63	658.8
1069.02	639.2
1069.39	657.4
1069.78	640
1070.17	650.2
1070.57	639.8
1070.93	652.8
1071.33	644.8
1071.72	658.2
1072.11	651.4
1072.48	651.4
1072.87	653.8
1073.26	653.2
1073.64	643.8
1074.03	644.6
1074.4	646
1074.79	654.4
1075.19	657.6
1075.56	652.6
1075.95	655.8
1076.34	652.2
1076.72	648.6
1077.11	661.4
1077.48	662.8
1077.88	659.6
1078.25	659.2
1078.64	664.8
1079.02	666
1079.41	662.8
1079.78	644.2
1080.18	644.6
1080.55	729.2
1080.95	646.8
1081.32	647.8
1081.72	657
1082.09	658
1082.49	642.4
1082.86	644.4
1083.24	637
1083.63	639.2
1084.01	658.8
1084.38	656
1084.78	636
1085.16	647
1085.55	668.4
1085.93	665.8
1086.31	647.8
1086.7	684.4
1087.08	654
1087.46	658.2
1087.83	650.4
1088.23	667
1088.61	640.4
1088.99	651.2
1089.36	644.4
1089.76	653.6
1090.14	652.2
1090.52	642.8
1090.9	648.8
1091.27	657.4
1091.67	685.2
1092.05	655.8
1092.43	651.2
1092.81	664.8
1093.19	661.2
1093.57	643.8
1093.95	644.4
1094.35	663.6
1094.73	666.2
1095.11	645.8
1095.49	645.6
1095.87	655.8
1096.25	672.2
1096.63	659.6
1097.01	650.6
1097.39	655.6
1097.77	650.8
1098.15	651.8
1098.53	653
1098.91	645.8
1099.29	650.2
1099.68	677.8
1100.06	660
1100.44	650.2
1100.82	656.4
1101.18	664.8
1101.56	650
1101.95	653.4
1102.33	649
1102.71	657.2
1103.1	643
1103.48	634.2
1103.86	632.2
1104.22	659.8
1104.61	649.2
1104.99	647.2
1105.38	640.6
1105.76	647
1106.12	640.4
1106.51	684.4
1106.89	651.6
1107.26	653.4
1107.64	653
1108.03	644
1108.41	649.8
1108.78	647.8
1109.16	650
1109.55	652.4
1109.91	635.2
1110.3	628.8
1110.69	661.8
1111.05	642.6
1111.44	662.2
1111.8	665.6
1112.19	652.2
1112.58	652.4
1112.94	645.8
1113.33	644.2
1113.7	641.4
1114.09	643.4
1114.45	643.6
1114.84	649.6
1115.21	665.8
1115.6	644.8
1115.96	658
1116.35	665
1116.72	650.6
1117.11	665
1117.48	645.6
1117.85	658.4
1118.24	668.4
1118.6	655.8
1118.99	647.6
1119.36	657
1119.73	650.6
1120.12	648.4
1120.49	636.4
1120.86	664
1121.25	648.8
1121.62	637.8
1121.99	649.8
1122.38	665.4
1122.76	655
1123.13	647.2
1123.5	658.6
1123.89	661.4
1124.26	639.4
1124.63	649
1125	650.8
1125.4	639.6
1125.77	638
1126.14	639.2
1126.51	652.6
1126.88	651.8
1127.26	633.6
1127.63	627.6
1128.02	641.6
1128.4	649.8
1128.77	651.2
1129.14	651.6
1129.52	648.4
1129.89	655.8
1130.26	639.8
1130.64	631.8
1131.01	645.4
