#lambda/nm	C1
208.295	544
208.67	492.4
209.045	459
209.419	456.8
209.794	691.6
210.169	669
210.544	818.4
210.919	703.2
211.295	682
211.67	698.2
212.045	691
212.421	686
212.796	737
213.172	681
213.547	686.4
213.923	695.8
214.299	681
214.675	700.6
215.051	696.6
215.427	698.6
215.803	710
216.179	697.4
216.555	677.6
216.932	696.2
217.308	686
217.684	691.8
218.061	690.2
218.438	693
218.814	686.4
219.191	697.2
219.568	683.2
219.945	685.6
220.322	690.8
220.699	695
221.076	696.2
221.453	689.2
221.83	685.6
222.208	687.6
222.585	682
222.962	693.6
223.34	690
223.717	686
224.095	680.6
224.473	694.6
224.851	683.2
225.229	683.2
225.607	709.8
225.985	680.2
226.363	698.2
226.741	696.2
227.119	686.2
227.497	699.2
227.876	675.8
228.254	705.6
228.633	701.2
229.011	687
229.39	695.6
229.769	694.6
230.148	696.4
230.527	719.4
230.905	690.4
231.284	690.4
231.664	688.4
232.043	709.8
232.422	703.6
232.801	687
233.181	705.8
233.56	678.4
233.94	681.8
234.319	680.4
234.699	690.2
235.079	749.8
235.458	733.8
235.838	714.4
236.218	686.2
236.598	678.6
236.978	686.8
237.358	690.2
237.738	686.8
238.119	700.8
238.499	679
238.88	699.2
239.26	705.8
239.641	675.8
240.021	682.2
240.402	686.8
240.783	692
241.163	692
241.544	689
241.925	688
242.306	698.2
242.687	689.4
243.069	687.2
243.45	698.6
243.831	678.6
244.212	691.8
244.594	730.4
244.975	701.2
245.357	688.2
245.739	688.8
246.12	696.4
246.502	710.4
246.884	694.8
247.266	686
247.648	692.2
248.03	705.4
248.412	693.8
248.794	695
249.176	683.2
249.559	706.6
249.941	680.4
250.323	679.8
250.706	687.6
251.089	692.6
251.471	691.6
251.854	687.2
252.237	690.8
252.62	681.2
253.002	687.8
253.385	683.6
253.769	706.6
254.152	688.6
254.535	692.6
254.918	678
255.301	688.6
255.685	694.4
256.068	680.4
256.452	707.8
256.835	700
257.219	695.4
257.603	705.2
257.986	685
258.37	697
258.754	674
259.138	695
259.522	701.6
259.906	687.8
260.29	704.6
260.675	691.4
261.059	694.2
261.443	684.4
261.828	699.8
262.212	702
262.597	682.6
262.981	686.8
263.366	699.2
263.751	684.4
264.136	684
264.521	684
264.906	688.8
265.291	692.2
265.676	683.8
266.061	697.2
266.446	717.8
266.831	691.6
267.217	708
267.602	686.6
267.987	697.2
268.373	681.8
268.759	703.8
269.144	693
269.53	694.2
269.916	685.2
270.302	684.6
270.688	698.4
271.074	693
271.46	700.8
271.846	740
272.232	693
272.618	685.2
273.004	685.4
273.391	710.6
273.777	713.6
274.164	706.2
274.55	706.6
274.937	689.6
275.324	698.2
275.71	710.4
276.097	702.6
276.484	681.4
276.871	704.4
277.258	694.4
277.645	687.2
278.032	700.6
278.419	692.2
278.807	697.4
279.194	689.8
279.581	692
279.969	707.4
280.356	691.6
280.744	694.6
281.131	720.4
281.519	706
281.907	685.4
282.295	680.6
282.682	703.2
283.07	696.2
283.458	707.4
283.846	707
284.235	704.8
284.623	698.4
285.011	679.6
285.399	699.2
285.788	691.8
286.176	677.8
286.565	704.8
286.953	685.6
287.342	681
287.731	682.6
288.119	688.2
288.508	689
288.897	693.2
289.286	678.4
289.675	688.2
290.064	710.6
290.453	699.6
290.821	691.2
291.21	711.8
291.599	690.4
291.989	698.2
292.378	702.6
292.768	716
293.157	702.2
293.547	702.8
293.936	688.2
294.326	687.6
294.716	701.2
295.106	684.6
295.496	699
295.886	705.6
296.276	688.8
296.666	680.4
297.056	688.4
297.446	676.6
297.836	712.4
298.227	688.2
298.617	696.4
299.008	699
299.398	690.8
299.789	692
300.179	686
300.57	703.4
300.961	695.8
301.352	682.8
301.742	700.4
302.133	698.2
302.524	692.4
302.915	693.6
303.307	684.4
303.698	701.4
304.089	699.2
304.48	689.4
304.872	697.6
305.263	695.6
305.655	689.6
306.046	709.4
306.438	702
306.829	688.8
307.221	716.4
307.613	711
308.005	704.6
308.397	704.6
308.789	724.6
309.181	719.4
309.573	716.2
309.965	708.8
310.357	692
310.749	713
311.142	686.2
311.534	694.2
311.926	697.4
312.319	692.6
312.711	691
313.104	712.2
313.497	690.4
313.889	738.2
314.282	710.8
314.675	725.4
315.068	694.4
315.461	713.2
315.854	734
316.247	700
316.64	695.8
317.033	695.8
317.405	711
317.798	688.4
318.192	696.4
318.585	690.6
318.979	704.4
319.372	689
319.766	692.6
320.16	701
320.553	716.8
320.947	713.2
321.341	687.6
321.735	690.4
322.129	676.6
322.523	718
322.917	675.4
323.311	712
323.705	698.8
324.099	710
324.494	707.6
324.888	703
325.282	695
325.677	710.2
326.071	693.2
326.466	713.8
326.861	700.2
327.255	700.8
327.65	714
328.045	712.4
328.44	696.8
328.835	690.2
329.23	684.8
329.625	716.6
330.02	690.2
330.415	710.6
330.81	704.6
331.206	697.6
331.601	688.2
331.996	702.6
332.37	723.6
332.766	682.2
333.161	720.2
333.557	691.8
333.953	685.6
334.348	1158.2
334.744	694.2
335.14	688
335.536	699
335.932	712.6
336.328	690.8
336.724	717
337.12	713
337.516	709.6
337.913	705.8
338.309	707.6
338.705	702.8
339.102	715.2
339.498	696.6
339.895	709.4
340.291	691.4
340.688	702.2
341.085	687
341.481	686.6
341.878	696.2
342.275	711
342.672	681.8
343.069	684.2
343.466	682.2
343.842	695.6
344.239	688.2
344.636	694
345.033	677.4
345.431	678
345.828	692.6
346.225	690
346.623	732.4
347.02	696
347.418	707.8
347.816	705
348.213	680.8
348.611	693.4
349.009	684.8
349.407	708.4
349.805	684.4
350.203	681.2
350.601	698
350.999	689.2
351.397	752.4
351.795	691
352.193	702.4
352.57	707
352.969	705
353.367	684.6
353.766	688.8
354.164	694
354.563	705.2
354.961	687.4
355.36	695.2
355.759	688.6
356.158	678.6
356.557	679.4
356.956	683.2
357.355	668.6
357.754	688.6
358.153	689.2
358.552	709.4
358.951	687.8
359.35	701.6
359.75	683.4
360.149	684.4
360.527	674.8
360.926	687
361.326	692
361.726	688.6
362.125	676.2
362.525	698.4
362.925	689
363.325	692.2
363.724	693.4
364.124	682.2
364.524	684
364.924	686
365.324	698.4
365.725	675.6
366.125	698.4
366.525	681.8
366.904	682.4
367.304	670.8
367.705	709.6
368.105	699.8
368.506	686.8
368.906	684
369.307	681.8
369.708	694.4
370.108	679.4
370.509	699.8
370.91	678.8
371.311	687.2
371.712	690
372.113	684
372.514	675
372.894	688.8
373.295	687.8
373.696	696.8
374.097	705.2
374.499	726.2
374.9	693.6
375.301	679.8
375.703	690.2
376.105	675.8
376.506	691
376.908	697.2
377.309	693
377.711	684.8
378.113	679.2
378.493	687.4
378.895	684.2
379.297	690.8
379.699	675.2
380.102	683.2
380.504	685.2
380.906	684.2
381.308	711.4
381.71	687.8
382.113	701.8
382.515	689.8
382.918	677.4
383.299	680.6
383.701	691
384.104	692.6
384.507	668.8
384.909	677.6
385.312	678.4
385.715	671.4
386.118	685.6
386.521	663
386.924	692.8
387.327	675.2
387.709	666.4
388.112	669.6
388.515	683
388.918	683.8
389.322	690.2
389.725	675.2
390.129	710.4
390.532	687.2
390.936	676.4
391.339	674.4
391.743	694.4
392.125	674.4
392.529	698.8
392.933	704
393.337	675.6
393.74	676.8
394.144	689.2
394.548	678.6
394.953	678
395.357	696.4
395.761	681.4
396.144	683
396.548	679.4
396.952	688.6
397.357	680.4
397.761	685.2
398.166	681.8
398.57	690
398.975	675.2
399.379	692.4
399.763	741.6
400.168	682.4
400.572	685.2
400.977	675.6
401.382	694.8
401.787	694
402.192	700
402.597	693.2
403.002	668.4
403.386	699.6
403.791	702.6
404.197	682.4
404.602	680.6
405.007	682.6
405.413	680.4
405.818	686.6
406.224	677.8
406.608	675.8
407.014	680.2
407.42	709.2
407.825	677.2
408.231	703.6
408.637	696.2
409.043	698.2
409.449	679.6
409.834	681.6
410.24	692.6
410.646	706
411.052	698
411.458	689.6
411.865	698.8
412.271	690.6
412.677	694.2
413.062	695.6
413.469	676.6
413.875	717.8
414.282	699.8
414.689	680.4
415.095	692.6
415.502	670.6
415.888	688.2
416.294	670.2
416.701	738.4
417.108	683
417.515	690.6
417.923	682
418.33	716.4
418.715	688
419.123	682.8
419.53	687.6
419.937	691.4
420.345	703.2
420.752	682.4
421.16	703.2
421.546	686.8
421.953	697.6
422.361	674.4
422.769	692.4
423.177	684.6
423.585	706.8
423.992	724.4
424.379	704.2
424.787	702.4
425.195	708.6
425.603	690.2
426.011	715.4
426.419	715.4
426.806	694.2
427.214	700
427.623	711.8
428.031	698.6
428.44	694.2
428.848	696.6
429.235	709.2
429.644	680
430.053	686
430.461	700
430.87	724.4
431.279	699.4
431.666	677.2
432.075	702.4
432.484	691.4
432.893	688
433.302	716.4
433.711	752.6
434.099	698.8
434.508	691
434.918	689.4
435.327	700.6
435.737	690.8
436.125	693
436.534	692.4
436.944	693.2
437.353	702.6
437.763	722.2
438.173	687
438.561	713
438.971	672.6
439.381	691.4
439.791	700
440.201	683.8
440.589	701.8
440.999	710.6
441.409	707.6
441.819	683.6
442.23	709.8
442.619	708
443.029	707.2
443.439	704
443.85	713.8
444.26	718.4
444.649	717
445.06	700.4
445.471	699.6
445.881	697.6
446.292	731.4
446.682	721.8
447.092	694.8
447.503	764.8
447.914	706.2
448.325	706.6
448.715	704.4
449.126	693.8
449.537	699.6
449.948	709.2
450.338	710.2
450.75	718.4
451.161	709.8
451.572	715.8
451.984	696.2
452.374	691
452.786	696
453.197	716.6
453.609	723
453.999	694.2
454.411	705.8
454.823	725
455.235	711.8
455.647	707.8
456.037	706.6
456.449	692
456.862	718.6
457.274	707.4
457.665	701.8
458.077	715.6
458.489	750
458.902	702.2
459.293	708
459.705	720.4
460.118	695.8
460.53	725
460.921	718.4
461.334	726.2
461.747	710.6
462.16	731.2
462.551	725.6
462.964	724.8
463.377	692.8
463.79	701.4
464.182	720.6
464.595	700.4
465.008	715.6
465.421	709.6
465.813	708.8
466.226	718
466.64	715.2
467.053	773.8
467.445	724.6
467.859	733.6
468.272	717.2
468.686	725.4
469.078	712.4
469.492	698.8
469.906	719.4
470.298	726.2
470.712	699.6
471.126	781
471.54	699.8
471.933	704.4
472.347	713.2
472.761	704.6
473.175	696.8
473.568	703.8
473.982	708.6
474.397	700.4
474.79	714.2
475.204	722.6
475.619	706.6
476.033	711
476.426	709.6
476.841	704.4
477.256	730.4
477.649	700
478.064	699.4
478.479	699.6
478.872	703.6
479.287	695.6
479.702	698.4
480.118	707.2
480.511	710.6
480.927	718
481.342	707
481.736	711
482.151	699.6
482.566	726.2
482.96	706.4
483.376	725
483.792	700.4
484.186	704
484.602	714
485.017	714.8
485.412	710.4
485.827	712.8
486.243	708.4
486.638	728.4
487.054	721
487.47	734.8
487.865	696.2
488.281	702
488.697	700.8
489.092	698.8
489.508	692.2
489.925	717
490.32	692.2
490.736	712
491.153	705.4
491.548	701.4
491.964	712.6
492.381	697.6
492.776	705.4
493.193	703
493.61	703.8
494.006	699.4
494.422	716.4
494.84	701.2
495.235	710.4
495.652	702.6
496.069	696.8
496.465	700.6
496.883	695
497.3	728.8
497.696	699.8
498.113	701.2
498.509	682.4
498.927	683.8
499.344	692.2
499.741	694.2
500.158	709.4
500.576	711.4
500.973	701.6
501.39	684.2
501.787	690.2
502.205	704
502.623	692.8
503.02	690.8
503.438	691.6
503.856	698.8
504.253	707
504.671	704
505.068	686.4
505.486	692.8
505.905	717
506.302	700.6
506.72	706.2
507.118	688.8
507.536	699.6
507.955	691.2
508.352	696
508.771	704
509.169	703.6
509.587	692.2
510.006	683.6
510.404	679
510.823	689.2
511.221	686.4
511.64	693.8
512.038	711.2
512.457	690.2
512.877	696.4
513.275	692.4
513.694	691
514.092	692.4
514.512	705
514.91	693
515.33	682.8
515.749	690.8
516.148	694.4
516.568	687
516.966	692.2
517.386	690
517.785	687.6
518.205	682.2
518.603	685
519.024	680.6
519.444	691.4
519.843	689.8
520.263	701
520.662	689.2
521.082	676.2
521.481	695
521.902	689
522.301	686.8
522.722	688.2
523.121	686.6
523.542	682
523.963	688
524.362	697.4
524.783	695.2
525.183	678.8
525.604	681.6
526.003	683.2
526.425	676.2
526.824	693.8
527.246	701.6
527.646	697.2
528.067	694.4
528.467	684
528.888	692
529.289	691.2
529.71	675.4
530.11	678.2
530.532	673.6
530.932	681.6
531.354	676.6
531.755	730.8
532.176	693
532.577	679.8
532.999	688.2
533.4	678.2
533.822	694.8
534.223	688.6
534.645	684.6
535.046	680.8
535.468	690.2
535.869	708.4
536.292	679
536.693	736.8
537.115	681.6
537.516	675.6
537.939	678.8
538.34	708
538.742	698
539.165	680.2
539.566	679
539.989	676.2
540.391	678.6
540.814	686.2
541.216	690.6
541.639	681
542.041	696.8
542.464	669
542.866	682.4
543.268	672.4
543.691	681.2
544.093	685
544.517	701.4
544.919	682.4
545.343	713.2
545.745	672.2
546.147	679.6
546.571	677
546.974	667.2
547.398	697.2
547.8	699.4
548.224	682.8
548.627	668.6
549.03	684
549.454	670.2
549.857	674.8
550.281	666
550.684	675.4
551.087	691.2
551.512	678.6
551.915	692.6
552.34	685.4
552.743	674.6
553.146	677.8
553.571	686.2
553.975	691.2
554.399	677.2
554.803	738.6
555.207	677.4
555.632	662.8
556.036	686.8
556.461	672.6
556.865	680.4
557.268	668.2
557.694	677.2
558.098	681.6
558.502	683.8
558.927	665.6
559.332	673.8
559.736	677
560.162	685.2
560.566	668.8
560.992	686.8
561.396	679.6
561.801	674.4
562.227	673.8
562.631	674.8
563.036	676.6
563.462	686.4
563.867	676.8
564.272	662.2
564.698	682.2
565.103	662.8
565.508	692.2
565.935	673.4
566.34	677
566.745	690.2
567.172	679.6
567.577	699.4
567.982	682
568.409	683.6
568.815	660.4
569.22	666.8
569.626	684.2
570.053	669
570.459	686.2
570.865	688.6
571.292	683.4
571.698	677.2
572.104	658
572.531	661.6
572.937	677.2
573.343	669.4
573.75	676.4
574.177	678.4
574.583	677.6
574.99	672.4
575.396	684.4
575.824	679.8
576.231	680
576.637	666.4
577.065	697.8
577.472	668.6
577.879	676.8
578.286	693
578.714	664.6
579.121	676
579.528	677.2
579.935	680.4
580.364	673.2
580.771	655.4
581.178	671
581.585	674
582.014	678.4
582.421	671.4
582.829	668.2
583.236	685.6
583.644	670.8
584.073	676.2
584.481	678.8
584.889	674.6
585.296	677.2
585.726	666.6
586.134	659.2
586.542	660.8
586.95	684.4
587.358	672.4
587.787	676.6
588.196	657.6
588.604	678.6
589.012	673
589.421	664.4
589.851	665.6
590.259	691.8
590.668	668
591.076	715.6
591.485	662.4
591.894	672.6
592.324	682.2
592.733	692
593.142	662.6
593.551	667
593.96	713.4
594.369	656.4
594.8	655.6
595.209	665.6
595.618	653.6
596.028	666.6
596.437	661.8
596.847	668
597.256	673.8
597.687	677.8
598.097	678.4
598.507	661.2
598.917	671.8
599.327	671.4
599.736	679.6
600.146	680.2
600.556	662.6
600.988	682
601.398	668
601.808	680.2
602.219	658.4
602.629	674
603.039	684.2
603.45	695.8
603.86	665.4
604.271	695.8
604.703	681.6
605.114	673
605.525	667.8
605.935	676.4
606.346	694.4
606.757	674.4
607.168	670.4
607.579	665
607.99	684.4
608.402	674.2
608.813	674.8
609.224	669.2
609.636	655.2
610.047	654.8
610.48	674.8
610.892	679.4
611.303	684
611.715	668
612.127	658.6
612.539	668
612.95	670.6
613.362	658
613.774	649.6
614.186	657
614.599	659.2
615.011	682.8
615.423	666.4
615.835	664.6
616.248	659.2
616.66	661.4
617.073	663.2
617.485	663
617.898	674.2
618.311	669.6
618.723	667.8
619.136	706.4
619.549	686.6
619.962	692.4
620.375	664.2
620.788	672
621.201	664.4
621.614	678.6
622.028	675.2
622.441	674
622.854	673.2
623.268	652.4
623.681	676.4
624.095	657.2
624.509	686.6
624.922	669.8
625.336	659.4
625.728	659.8
626.142	677.4
626.556	690.2
626.97	678.4
627.384	666.8
627.799	668
628.213	685.4
628.627	673.8
629.041	662.4
629.456	664.2
629.87	666.4
630.285	684.6
630.699	675
631.093	671.4
631.507	668.8
631.922	672
632.337	677.6
632.752	653
633.167	670.6
633.582	667.8
633.997	664.8
634.412	665.2
634.806	673.8
635.221	659.2
635.637	678.6
636.052	655.4
636.468	674.8
636.883	683.6
637.299	676.4
637.715	642.6
638.109	665.2
638.525	653
638.941	675.6
639.357	665.6
639.773	685.2
640.189	663.4
640.584	657.6
641	665.8
641.416	651.4
641.832	663.8
642.249	659.8
642.665	661.6
643.06	679.8
643.477	684.2
643.894	651
644.31	667.6
644.727	666.4
645.123	672.8
645.54	650.8
645.957	675.2
646.374	680.8
646.77	668.2
647.187	698.2
647.604	663
648.021	661
648.439	665
648.835	675.6
649.252	670.6
649.67	668.8
650.088	667.4
650.484	679
650.902	669.4
651.32	676.2
651.738	665.2
652.134	672.4
652.552	695.6
652.971	680.2
653.389	660.6
653.786	677.4
654.204	693.2
654.622	657.4
655.019	670.6
655.438	671
655.857	669.8
656.275	671.4
656.673	657.6
657.091	745.4
657.51	661.8
657.908	676.8
658.327	686.2
658.746	657
659.144	671.2
659.563	675.4
659.982	672
660.38	654.2
660.8	666
661.219	679
661.617	673
662.037	676.6
662.457	691
662.855	651.8
663.275	702.8
663.695	673.8
664.094	660.8
664.514	665.8
664.934	661.8
665.333	677
665.753	667
666.152	655.2
666.572	658.4
666.993	681.6
667.392	671.6
667.812	667
668.212	660
668.632	672.4
669.053	658.2
669.453	675.4
669.874	661.6
670.273	671.4
670.694	660.2
671.116	677.8
671.515	669.6
671.937	662.2
672.337	665.4
672.758	660
673.158	676.2
673.58	664.2
673.98	664
674.402	678.6
674.824	663.4
675.224	653.4
675.646	659.6
676.047	657.6
676.469	660.2
676.869	676
677.292	674.8
677.693	663.2
678.115	656.6
678.516	666.2
678.939	675.2
679.34	663.6
679.762	674.4
680.164	666.8
680.586	658.8
680.988	669.6
681.411	691.6
681.812	671
682.236	650.8
682.637	654.4
683.061	659.2
683.462	669.2
683.864	664.2
684.288	678.4
684.69	663.4
685.114	672
685.516	675.4
685.94	658.6
686.342	668.6
686.766	661.8
687.168	674
687.571	686.6
687.995	673
688.398	657.8
688.822	662.6
689.225	685.8
689.628	686.8
690.052	671.2
690.456	673.6
690.88	675.2
691.284	659.4
691.687	675.6
692.112	656.8
692.515	666.2
692.919	663.8
693.344	658.4
693.747	667
694.173	666.8
694.577	674.6
694.98	666.2
695.406	659.4
695.81	671.2
696.214	673.2
696.64	661.8
697.044	670.2
697.448	668.8
697.874	667.8
698.279	665.6
698.684	655.8
699.11	655.4
699.514	660.2
699.919	661.4
700.324	658.8
700.75	658.4
701.156	662
701.561	675.2
701.987	669
702.393	688
702.798	674.8
703.203	663
703.63	659
704.036	650.8
704.442	666.8
704.847	657.4
705.274	672.8
705.68	676.8
706.086	680.6
706.492	654.4
706.92	669.2
707.326	679.2
707.732	667
708.139	653.4
708.545	656.4
708.973	663.2
709.38	665
709.786	641
710.193	677.4
710.6	663.2
711.028	646.6
711.435	664.4
711.842	667.2
712.249	668.8
712.656	660.2
713.064	676
713.492	651.8
713.9	659.6
714.307	663
714.715	664
715.123	666.6
715.53	671.8
715.938	681.4
716.367	663.2
716.775	656.6
717.184	658.2
717.592	669.6
718	679.8
718.408	704.8
718.816	713.2
719.225	670.4
719.633	671
720.042	664
720.472	655.2
720.881	687.2
721.29	662.2
721.699	658.4
722.108	667.8
722.517	667.8
722.926	666
723.335	667.6
723.744	661.2
724.154	660.8
724.563	666
724.973	667.8
725.382	657.4
725.792	663.6
726.202	657.8
726.612	688.4
727.022	661.2
727.432	650.6
779.813	661.2
780.223	707
780.634	658.4
781.044	654.8
781.454	656.8
781.865	677
782.276	652.4
782.686	673.2
783.097	663.2
783.508	663
783.919	660.8
784.33	674.2
784.741	677.4
785.152	658.6
785.563	640
785.974	654.4
786.386	673.4
786.776	663.6
787.188	662
787.599	651
788.011	678
788.423	661.8
788.835	669.8
789.247	657.6
789.659	657.6
790.071	662
790.483	713.8
790.874	659.4
791.286	680
791.699	655.6
792.111	657.6
792.524	662
792.937	648.2
793.349	648.6
793.741	652.2
794.154	651.2
794.567	681.4
794.98	663
795.393	646
795.785	673.4
796.198	658.4
796.612	663
797.026	657.4
797.439	648.6
797.831	662.4
798.245	656.8
798.659	662.6
799.073	654
799.487	650.2
799.88	667
800.294	659.2
800.708	660.4
801.123	655.4
801.516	677
801.93	646.2
802.345	645.8
802.76	659.2
803.153	681.8
803.568	678
803.983	680.4
804.377	672.2
804.792	655.6
805.207	654
805.601	665.4
806.016	694.6
806.432	662.6
806.826	699
807.242	681
807.658	663.2
808.052	656.4
808.468	658
808.884	660.8
809.279	658.8
809.695	680
810.111	681.2
810.506	659.4
810.922	684.6
811.339	652.8
811.734	667.6
812.151	656.8
812.546	655.2
812.963	647.6
813.38	670
813.776	656.8
814.193	687.6
814.589	656
815.006	658.6
815.402	653.2
815.82	658.6
816.237	663.2
816.633	659.2
817.051	647.8
817.448	669.6
817.866	656.4
818.262	686.8
818.68	648.8
819.077	655.6
819.495	658.8
819.892	705.4
820.311	651.8
820.708	656.4
821.127	656
821.524	677.4
821.943	660.8
822.34	683.2
822.759	656.2
823.157	662.8
823.576	687.2
823.974	667.2
824.393	795.4
824.791	656.4
825.189	656.8
825.609	658.2
826.007	653.8
826.427	647.4
826.826	661
827.246	658.4
827.644	645.4
828.043	668.4
828.463	654.2
828.862	669
829.261	668.2
829.682	644
830.081	667.2
830.502	659.8
830.901	667.8
831.301	651.6
831.722	645
832.121	661
832.521	656.8
832.943	661.8
833.342	660.4
833.742	652.2
834.164	664.4
834.564	649.2
834.965	659.4
835.386	652.8
835.787	666.2
836.188	660.8
836.588	664.4
837.01	661.8
837.411	657
837.812	666.8
838.213	664.4
838.636	661.8
839.037	741
839.438	661
839.84	664.6
840.263	661.6
840.664	666.6
841.066	664
841.468	669
841.891	656.8
842.293	675.8
842.695	669
843.098	670.4
843.5	662.6
843.902	674.6
844.326	664.2
844.729	663.4
845.131	681.4
845.534	664
845.937	670
846.34	679.8
846.764	664
847.167	670.2
847.571	651.2
847.974	660.6
848.377	659
848.781	714.2
849.184	668.6
849.588	660.2
849.992	652.8
850.396	662
850.821	680.8
851.225	668.4
851.63	652.6
852.034	674.2
852.438	658.4
852.843	699.8
853.247	643
853.652	655.4
854.057	684.4
854.462	657.6
854.867	661.8
855.272	693.8
855.677	660.6
856.082	651
856.487	655.6
856.893	675.4
857.298	660.6
857.704	650.6
858.11	656
858.516	668.2
858.922	660
859.328	677.2
859.734	656
860.14	665.8
860.525	663.2
860.931	649.8
861.338	660.6
861.745	658
862.151	672
862.558	661.6
862.965	655.4
863.372	649.4
863.779	652.6
864.186	682.6
864.572	662
864.98	682.4
865.387	694.6
865.795	658.4
866.203	677.2
866.61	656.2
867.018	670.4
867.405	663.4
867.813	669.2
868.221	661.8
868.63	658.4
869.038	659.6
869.425	710.2
869.834	654.6
870.243	651.2
870.652	645.6
871.039	649
871.448	653.2
871.857	664.6
872.266	656.6
872.654	666
873.064	653.8
873.473	664.4
873.883	659.8
874.271	652.2
874.681	672.8
875.091	650.6
875.48	672.2
875.89	680.8
876.3	659
876.689	643.6
877.1	659.8
877.51	655.4
877.9	673.8
878.31	646.6
878.721	691.2
879.111	671.2
879.522	655.8
879.933	646.2
880.323	642.2
880.734	655.8
881.125	663
881.536	656.2
881.948	648.8
882.338	662.2
882.75	664.2
883.141	656.8
883.553	656
883.944	681.8
884.356	670
884.769	651.6
885.16	663
885.573	654.4
885.964	650
886.377	653
886.768	652.6
887.181	655.8
887.573	644.8
887.987	667.4
888.378	670.2
888.792	671
889.184	705.8
889.598	658.6
889.99	656.2
890.383	647.4
890.797	649
891.19	673.6
891.604	653
891.997	640.8
892.411	649.8
892.805	641.2
893.198	653.2
893.613	634
894.006	653.4
894.421	646.2
894.815	650.8
895.209	646.8
895.624	705
896.018	675.4
896.412	654.6
896.828	648.6
897.222	662.4
897.617	654.2
898.033	673.4
898.427	658.6
898.822	655.6
899.239	648.8
899.634	649.2
900.029	674.8
900.424	648.6
900.841	644.2
901.236	669
901.632	666
902.027	725.2
902.445	664.4
902.841	658.6
903.237	663
903.633	672.4
904.05	670
904.447	665.8
904.843	665.4
905.24	666.2
905.636	642.2
906.033	657.4
906.451	676.2
906.848	651.8
907.246	654.6
907.643	668.4
908.04	660.2
908.438	686
908.835	658.6
909.254	664.8
909.652	656.8
910.05	652.8
910.448	652.8
910.846	659.4
911.244	650.2
911.643	659
912.041	657.6
912.44	673.6
912.839	644.8
913.237	650.4
913.636	650.4
914.035	654.8
914.434	657.4
914.834	665.8
915.233	670.4
915.633	655
916.032	645.2
916.432	658.8
916.832	664.8
917.232	652.2
917.632	649.4
918.032	654.2
918.432	657.2
918.833	655.4
919.233	652.8
919.634	639.2
920.035	668
920.436	645.4
920.837	670.2
921.238	656.2
921.639	659.4
922.019	655.2
922.42	666.4
922.822	655
923.224	648.6
923.625	650.6
924.027	658.8
924.429	676.6
924.81	664
925.212	663
925.615	661
926.017	648.6
926.42	668
926.801	650.6
927.204	653.6
927.607	666.8
928.01	673.8
928.413	656.6
928.795	642.2
929.199	648
929.602	651.4
930.006	647.8
930.388	646.8
930.792	665.8
931.196	655.8
931.579	704.4
931.983	648.8
932.388	718.4
932.771	658.8
933.176	640.8
933.58	655.8
933.964	656
934.369	646
934.774	657.6
935.158	654.8
935.563	659.8
935.947	658.6
936.353	663.8
936.759	657
937.143	659.2
937.549	654.6
937.934	671.8
938.34	672.8
938.746	660.4
939.131	656.4
939.538	649.8
939.923	660.6
940.33	646.6
940.716	662.2
941.123	653.4
941.508	670
941.916	671.4
942.302	669.6
942.709	652.2
943.096	641
943.503	661.4
943.89	656.6
944.298	649.4
944.685	688.8
945.072	653.6
945.48	670.4
945.867	659.8
946.276	656.8
946.663	685.2
947.051	677.6
947.46	665.4
947.848	661
948.257	654
948.645	657.8
949.033	652
949.443	648.2
949.831	697.8
950.22	649.4
950.63	665.8
951.018	692.8
951.407	651.8
951.796	651.6
952.207	666.6
952.596	656
952.985	646.6
953.375	703.8
953.786	650
954.176	651.8
954.566	662.8
954.956	637.4
955.367	654.2
955.758	672.6
956.148	636
956.539	659
956.929	657
957.341	631.6
957.732	645
958.123	663
958.515	648.6
958.906	663.8
959.297	649.8
959.689	653.8
960.102	650.8
960.494	655
960.886	657.6
961.278	652
961.67	678
962.062	701.2
962.455	650.6
962.847	651.2
963.24	643
963.633	659.6
964.026	650.8
964.419	656
964.812	662.2
965.206	653.8
965.599	653.8
965.993	658
966.386	649.6
966.78	662.6
967.174	665.6
967.569	644.4
967.963	659.2
968.357	651
968.752	643.6
969.146	646.6
969.541	653.2
969.936	661.6
970.331	664.6
970.705	649.4
971.1	654.8
971.496	657.2
971.892	648.2
972.287	660.2
972.683	653.4
973.079	655.8
973.454	669.2
973.85	652.6
974.247	666.2
974.643	684.4
975.04	654
975.415	653.8
975.812	648.8
976.209	656.6
976.607	650.2
976.982	659.2
977.38	671.8
977.778	649.8
978.175	648.8
978.552	651.6
978.95	664.8
979.348	650.2
979.725	706
980.123	647.2
980.522	658.6
980.899	649
981.298	655.6
981.697	650.6
982.075	648.4
982.474	643.6
982.852	655.2
983.251	660.4
983.651	653.6
984.029	658.6
984.429	662.2
984.808	643.4
985.208	642.6
985.609	647.8
985.987	638
986.388	643.8
986.768	659.4
987.168	661
987.548	658.6
987.949	661.4
988.329	655.2
988.731	645.2
989.111	645.2
989.491	647.2
989.893	656
990.273	663.8
990.676	639.4
991.057	643.8
991.459	646.6
991.84	657.2
992.221	636.4
992.624	684.2
993.006	652.6
993.388	654.4
993.791	656.4
994.173	661.2
994.576	698.8
994.959	638.8
995.341	652.8
995.724	649.6
996.128	640.4
996.511	663.8
996.894	643
997.298	647.8
997.681	657.8
998.065	654.8
998.448	645.4
998.854	664.6
999.237	639.6
999.621	665.2
1000.01	672.8
1000.39	651.2
1000.8	647.2
1001.18	662.8
1001.56	663.6
1001.95	660.4
1002.33	664.4
1002.72	646.8
1003.13	649.4
1003.51	652.8
1003.9	659
1004.28	660.6
1004.67	643.8
1005.06	659.6
1005.44	687
1005.83	644.6
1006.21	649.2
1006.6	652.2
1006.99	657
1007.37	665.8
1007.76	656.6
1060.12	649
1060.51	648.6
1060.89	654
1061.28	664
1061.67	663.4
1062.06	660.2
1062.45	651
1062.83	645.8
1063.22	664
1063.61	696.8
1064	672
1064.39	648.4
1064.78	653.6
1065.14	669.6
1065.53	653.2
1065.92	645.4
1066.31	648.8
1066.7	658
1067.09	668.6
1067.46	658.6
1067.85	657.4
1068.24	650.8
1068.63	656.4
1069.02	653
1069.39	657.4
1069.78	638.4
1070.17	648.6
1070.57	642.6
1070.93	656.8
1071.33	650.8
1071.72	655.2
1072.11	649.6
1072.48	647
1072.87	659.2
1073.26	659
1073.64	650.2
1074.03	636.2
1074.4	644.6
1074.79	639.4
1075.19	656.4
1075.56	646.8
1075.95	662
1076.34	653.2
1076.72	655
1077.11	661
1077.48	674.4
1077.88	653.4
1078.25	655.2
1078.64	662.6
1079.02	658.8
1079.41	657.6
1079.78	649
1080.18	649
1080.55	730
1080.95	655.8
1081.32	647.4
1081.72	659
1082.09	655.8
1082.49	647
1082.86	657.8
1083.24	640.2
1083.63	644.8
1084.01	650.6
1084.38	666
1084.78	652.4
1085.16	661
1085.55	673
1085.93	672.6
1086.31	647
1086.7	681
1087.08	658.2
1087.46	657.8
1087.83	640.6
1088.23	657.4
1088.61	656.4
1088.99	652.4
1089.36	649.6
1089.76	652
1090.14	655
1090.52	652
1090.9	650.2
1091.27	650.8
1091.67	671.8
1092.05	648.4
1092.43	646
1092.81	667
1093.19	659.4
1093.57	648.8
1093.95	642
1094.35	663
1094.73	666.6
1095.11	647.6
1095.49	644.6
1095.87	642.6
1096.25	668.6
1096.63	664.4
1097.01	642.8
1097.39	654
1097.77	656.4
1098.15	646.8
1098.53	637.2
1098.91	646.4
1099.29	652.6
1099.68	672.4
1100.06	662
1100.44	648.2
1100.82	652.6
1101.18	660.6
1101.56	643.4
1101.95	645.4
1102.33	649.2
1102.71	649.8
1103.1	635
1103.48	635
1103.86	634.8
1104.22	657
1104.61	639
1104.99	647.6
1105.38	644.2
1105.76	658
1106.12	643.8
1106.51	687.4
1106.89	660.2
1107.26	653.8
1107.64	658.6
1108.03	649.8
1108.41	652.6
1108.78	651.6
1109.16	656.6
1109.55	662.6
1109.91	632.8
1110.3	639
1110.69	670.8
1111.05	650.2
1111.44	647
1111.8	650.4
1112.19	648.8
1112.58	652.2
1112.94	652.8
1113.33	650.8
1113.7	653.2
1114.09	646.6
1114.45	646.8
1114.84	650.2
1115.21	651.8
1115.6	646.8
1115.96	655.6
1116.35	651.4
1116.72	642.8
1117.11	657.8
1117.48	644.6
1117.85	635.4
1118.24	663.4
1118.6	654.8
1118.99	644.6
1119.36	658.8
1119.73	653.8
1120.12	647.2
1120.49	641
1120.86	662.6
1121.25	646.2
1121.62	638
1121.99	653.2
1122.38	663.4
1122.76	654.4
1123.13	652
1123.5	653.2
1123.89	657.8
1124.26	635.2
1124.63	657.4
1125	650
1125.4	637.6
1125.77	640.2
1126.14	641.4
1126.51	646.6
1126.88	652
1127.26	645.4
1127.63	624.2
1128.02	645.8
1128.4	640.8
1128.77	639.4
1129.14	652.2
1129.52	651.8
1129.89	644.6
1130.26	649
1130.64	643.4
1131.01	647.6
