#lambda/nm	C1
208.295	552.8
208.67	500
209.045	464
209.419	464
209.794	687.2
210.169	673.4
210.544	807.8
210.919	698.4
211.295	678.4
211.67	695
212.045	689.8
212.421	686
212.796	728.4
213.172	689
213.547	679.2
213.923	685.4
214.299	679.8
214.675	691
215.051	688.4
215.427	703.6
215.803	713.4
216.179	692.8
216.555	683.6
216.932	693.2
217.308	691.8
217.684	689.4
218.061	695.8
218.438	697.4
218.814	678.8
219.191	701.2
219.568	685
219.945	686.8
220.322	700.4
220.699	697
221.076	695.4
221.453	674.6
221.83	674.6
222.208	675.6
222.585	690.6
222.962	696
223.34	698.8
223.717	690.6
224.095	692.2
224.473	691.6
224.851	688.2
225.229	677
225.607	710
225.985	677.2
226.363	692.8
226.741	691.6
227.119	690.2
227.497	703
227.876	673.2
228.254	701.2
228.633	692.8
229.011	696.6
229.39	696.4
229.769	698.2
230.148	702.8
230.527	718.8
230.905	684
231.284	691.8
231.664	683.6
232.043	702.8
232.422	701.4
232.801	680
233.181	701.8
233.56	695
233.94	695.4
234.319	678.4
234.699	683.8
235.079	745
235.458	734.4
235.838	709.4
236.218	687.8
236.598	679.4
236.978	685.6
237.358	680.8
237.738	687.6
238.119	699.4
238.499	680.4
238.88	694.6
239.26	702.6
239.641	679
240.021	683.2
240.402	696.2
240.783	682.6
241.163	688.6
241.544	695.2
241.925	691.2
242.306	708.2
242.687	681.2
243.069	690.6
243.45	692.6
243.831	681.2
244.212	681.6
244.594	735.4
244.975	696.4
245.357	689.4
245.739	676.4
246.12	691
246.502	704
246.884	686.2
247.266	685.2
247.648	697.8
248.03	721.2
248.412	697
248.794	696
249.176	690.6
249.559	700.8
249.941	678.6
250.323	682.8
250.706	680.6
251.089	690.6
251.471	686.8
251.854	679.4
252.237	693
252.62	694.2
253.002	686.8
253.385	690.4
253.769	702.4
254.152	687.4
254.535	699.8
254.918	673.4
255.301	688.4
255.685	689
256.068	682.6
256.452	717
256.835	695.4
257.219	693.2
257.603	708.8
257.986	680
258.37	685.6
258.754	667.4
259.138	694.8
259.522	706.6
259.906	676.6
260.29	690.4
260.675	676.2
261.059	687
261.443	678.6
261.828	698.2
262.212	689.6
262.597	682.6
262.981	682.6
263.366	687.8
263.751	696.4
264.136	693.6
264.521	690.4
264.906	678.2
265.291	698.4
265.676	687.4
266.061	693.8
266.446	703
266.831	675.8
267.217	713.6
267.602	696
267.987	701
268.373	693
268.759	702.8
269.144	701.2
269.53	691.8
269.916	680.4
270.302	687.4
270.688	698.8
271.074	687
271.46	706.8
271.846	722.4
272.232	688.4
272.618	677.8
273.004	684.6
273.391	707.2
273.777	702.6
274.164	696.8
274.55	707
274.937	701.4
275.324	684.2
275.71	698.4
276.097	699.8
276.484	686.2
276.871	690
277.258	701.4
277.645	673.6
278.032	685.8
278.419	687.4
278.807	689.4
279.194	680.4
279.581	686.4
279.969	689.2
280.356	689
280.744	687.8
281.131	722.6
281.519	702.8
281.907	691.8
282.295	692.6
282.682	709.2
283.07	691.6
283.458	700
283.846	707.6
284.235	709
284.623	699
285.011	692.6
285.399	691.4
285.788	691.4
286.176	686.2
286.565	710.4
286.953	686.8
287.342	697.8
287.731	695
288.119	685.4
288.508	684.8
288.897	701.8
289.286	680.2
289.675	693.2
290.064	704.4
290.453	683
290.821	682.2
291.21	701.8
291.599	689.4
291.989	688.2
292.378	688.6
292.768	709.6
293.157	693.2
293.547	705.4
293.936	697
294.326	686.2
294.716	693.2
295.106	693.6
295.496	703
295.886	706.6
296.276	696.2
296.666	676
297.056	689
297.446	681.2
297.836	701.4
298.227	698.8
298.617	690.6
299.008	711.8
299.398	693
299.789	685.4
300.179	701
300.57	712.4
300.961	687.6
301.352	687.4
301.742	698.4
302.133	692.4
302.524	691
302.915	688.2
303.307	688.4
303.698	698
304.089	699.6
304.48	700
304.872	703.4
305.263	694.2
305.655	686.4
306.046	701.8
306.438	698.6
306.829	692.2
307.221	707.4
307.613	701.6
308.005	708.2
308.397	716
308.789	723.6
309.181	721.8
309.573	720
309.965	715.2
310.357	685
310.749	708.4
311.142	691.2
311.534	690.8
311.926	695.2
312.319	699.8
312.711	686.4
313.104	713
313.497	702.2
313.889	730.4
314.282	713.2
314.675	719.2
315.068	693.8
315.461	704.4
315.854	733.4
316.247	700.6
316.64	694.6
317.033	693.4
317.405	709.2
317.798	692.2
318.192	693.6
318.585	690
318.979	699
319.372	682.4
319.766	693.4
320.16	696.8
320.553	696
320.947	711.6
321.341	687
321.735	692.2
322.129	674.4
322.523	725.8
322.917	692
323.311	702
323.705	694.8
324.099	711.6
324.494	709.6
324.888	710.2
325.282	695.2
325.677	707.6
326.071	702.6
326.466	704.6
326.861	703.4
327.255	707.8
327.65	714.2
328.045	708.6
328.44	701.4
328.835	692.4
329.23	697.2
329.625	721.8
330.02	690.8
330.415	717.6
330.81	705
331.206	704.2
331.601	694.2
331.996	708.2
332.37	717.4
332.766	687.4
333.161	724.8
333.557	692.6
333.953	689.4
334.348	1020.4
334.744	695.2
335.14	683.8
335.536	692.8
335.932	710
336.328	688.4
336.724	704.8
337.12	685.4
337.516	700.4
337.913	701
338.309	708.4
338.705	697.4
339.102	709
339.498	693.8
339.895	711
340.291	691.8
340.688	704
341.085	680.4
341.481	698.8
341.878	700.4
342.275	721.6
342.672	682.4
343.069	693.4
343.466	684.2
343.842	711.4
344.239	686.8
344.636	688
345.033	690.2
345.431	685.8
345.828	694.4
346.225	687
346.623	734
347.02	694.2
347.418	692
347.816	711
348.213	686.4
348.611	695.2
349.009	689.4
349.407	703.8
349.805	680
350.203	677
350.601	709.6
350.999	685
351.397	742.8
351.795	689
352.193	699.4
352.57	698
352.969	711.8
353.367	684.4
353.766	688.8
354.164	694.2
354.563	701.2
354.961	691
355.36	692.4
355.759	675.8
356.158	686.2
356.557	679
356.956	681.8
357.355	669.8
357.754	685.8
358.153	693.6
358.552	713.8
358.951	685
359.35	696.8
359.75	682.6
360.149	678.6
360.527	669.6
360.926	673.6
361.326	690
361.726	696.8
362.125	679.8
362.525	699
362.925	685.4
363.325	687.8
363.724	678.4
364.124	684.4
364.524	676.4
364.924	682.6
365.324	694.4
365.725	668.4
366.125	698.6
366.525	680.6
366.904	672.8
367.304	667.8
367.705	705.2
368.105	698.4
368.506	677.6
368.906	685.4
369.307	684
369.708	697.8
370.108	679.4
370.509	702.8
370.91	679.6
371.311	689.4
371.712	694
372.113	689.6
372.514	672.8
372.894	678.4
373.295	678.6
373.696	696
374.097	694.4
374.499	720.8
374.9	695
375.301	667.4
375.703	693.8
376.105	677.2
376.506	682.4
376.908	687.6
377.309	691.8
377.711	694
378.113	684.6
378.493	676.4
378.895	678
379.297	701.2
379.699	667.8
380.102	693.2
380.504	687.6
380.906	671.6
381.308	713.6
381.71	684.4
382.113	697.6
382.515	681.4
382.918	691.6
383.299	694
383.701	701.2
384.104	686.8
384.507	668.4
384.909	681.8
385.312	670.6
385.715	673.8
386.118	684.6
386.521	667
386.924	699
387.327	681.4
387.709	667.6
388.112	669.4
388.515	684.4
388.918	685.2
389.322	690.8
389.725	676.8
390.129	715.6
390.532	687.8
390.936	683.6
391.339	681
391.743	689
392.125	678.4
392.529	694.4
392.933	697.4
393.337	693.4
393.74	680.4
394.144	679.2
394.548	681.8
394.953	680.4
395.357	689
395.761	677.6
396.144	680.6
396.548	683.4
396.952	683.4
397.357	685.6
397.761	674.2
398.166	687.6
398.57	678.2
398.975	670
399.379	691.6
399.763	746.6
400.168	692.2
400.572	686.2
400.977	675
401.382	708
401.787	696.8
402.192	704.4
402.597	709
403.002	676
403.386	697.8
403.791	705.6
404.197	671.8
404.602	689.8
405.007	679
405.413	687
405.818	685.4
406.224	677.4
406.608	681
407.014	680.6
407.42	712.2
407.825	676.8
408.231	695.6
408.637	691.4
409.043	705
409.449	683.2
409.834	682.8
410.24	687.6
410.646	703.8
411.052	691
411.458	693.6
411.865	697.4
412.271	694.6
412.677	677.8
413.062	693.4
413.469	676.4
413.875	720.2
414.282	705.8
414.689	693.8
415.095	693.6
415.502	673.2
415.888	687.6
416.294	667
416.701	733.6
417.108	680.6
417.515	695.2
417.923	686.8
418.33	712.6
418.715	691.6
419.123	681
419.53	685.6
419.937	689
420.345	703.2
420.752	690.2
421.16	697.8
421.546	693.6
421.953	699.4
422.361	676
422.769	685.4
423.177	677.2
423.585	715.2
423.992	708
424.379	698
424.787	696.4
425.195	711
425.603	688
426.011	696.8
426.419	708.8
426.806	688.8
427.214	698.8
427.623	697.6
428.031	697.4
428.44	688.2
428.848	698.8
429.235	707.4
429.644	697.2
430.053	694.4
430.461	704
430.87	721.4
431.279	696.4
431.666	682.8
432.075	685.2
432.484	703
432.893	688
433.302	717
433.711	745.6
434.099	698
434.508	684.6
434.918	681.4
435.327	697.4
435.737	694.8
436.125	700.2
436.534	705.8
436.944	692.4
437.353	688.4
437.763	717
438.173	688
438.561	698.6
438.971	676.6
439.381	697.4
439.791	705.4
440.201	679.4
440.589	700.4
440.999	708.6
441.409	704.6
441.819	679
442.23	708.2
442.619	708
443.029	706.6
443.439	709.6
443.85	724
444.26	728.2
444.649	707.6
445.06	700.8
445.471	699.6
445.881	712.2
446.292	721.2
446.682	734.4
447.092	695.6
447.503	777.6
447.914	707
448.325	712.8
448.715	715.6
449.126	702.8
449.537	712.4
449.948	715.4
450.338	717.8
450.75	716.8
451.161	713.2
451.572	724.2
451.984	707.8
452.374	689.8
452.786	712.2
453.197	718.2
453.609	720.2
453.999	699.4
454.411	709.4
454.823	728
455.235	723
455.647	715.4
456.037	723.6
456.449	704
456.862	726.2
457.274	722.8
457.665	701.4
458.077	721.2
458.489	759.6
458.902	719.8
459.293	733
459.705	713.6
460.118	713.6
460.53	719.8
460.921	718.2
461.334	712.8
461.747	712.2
462.16	740.2
462.551	735.4
462.964	725.6
463.377	701.2
463.79	724.6
464.182	745.2
464.595	711
465.008	730
465.421	727
465.813	722.4
466.226	726.2
466.64	718.8
467.053	777
467.445	737.6
467.859	735.6
468.272	735.4
468.686	743.4
469.078	722.8
469.492	712.4
469.906	733.4
470.298	739.4
470.712	723.6
471.126	793.6
471.54	720.6
471.933	726.8
472.347	723.4
472.761	717.2
473.175	715.8
473.568	724
473.982	722
474.397	730.4
474.79	733.8
475.204	733
475.619	732.8
476.033	729.8
476.426	730
476.841	715
477.256	749.2
477.649	726.2
478.064	720.6
478.479	713.6
478.872	716.4
479.287	704.2
479.702	714
480.118	721.4
480.511	724.2
480.927	717
481.342	717.6
481.736	735
482.151	725
482.566	738.4
482.96	729
483.376	738
483.792	712.6
484.186	726
484.602	717.2
485.017	726
485.412	724.4
485.827	739.2
486.243	723.6
486.638	751.2
487.054	733
487.47	740
487.865	724
488.281	713.2
488.697	709.2
489.092	726.6
489.508	714.4
489.925	729.4
490.32	715.2
490.736	734
491.153	725.2
491.548	721.2
491.964	739.4
492.381	700.4
492.776	725.4
493.193	715.4
493.61	728.4
494.006	719.6
494.422	713.6
494.84	712.4
495.235	739.2
495.652	718
496.069	712
496.465	711.6
496.883	712.8
497.3	736.2
497.696	718
498.113	724.2
498.509	703.6
498.927	704.8
499.344	705
499.741	699.4
500.158	727.4
500.576	726.8
500.973	714
501.39	707.2
501.787	706.2
502.205	709
502.623	704.2
503.02	705
503.438	700.6
503.856	715
504.253	722.6
504.671	716.2
505.068	703.8
505.486	697.2
505.905	731.2
506.302	709.8
506.72	719.2
507.118	699.2
507.536	718.6
507.955	710.8
508.352	709.8
508.771	719.6
509.169	704.8
509.587	700
510.006	713.2
510.404	689.4
510.823	701
511.221	703.4
511.64	711.6
512.038	725.6
512.457	703.2
512.877	705.6
513.275	711
513.694	701
514.092	704.4
514.512	713.4
514.91	701
515.33	698
515.749	712
516.148	705.6
516.568	711.2
516.966	696.2
517.386	697.6
517.785	704.8
518.205	696.8
518.603	702.8
519.024	699
519.444	700.4
519.843	702
520.263	705
520.662	697.6
521.082	699
521.481	700.4
521.902	704.4
522.301	699
522.722	702.4
523.121	693.2
523.542	699.4
523.963	696
524.362	702.2
524.783	708.6
525.183	695.8
525.604	701.2
526.003	687.4
526.425	691.6
526.824	707.4
527.246	703.2
527.646	705.4
528.067	694.4
528.467	697.2
528.888	695.6
529.289	686.8
529.71	696.8
530.11	681
530.532	690.2
530.932	678.6
531.354	688
531.755	727.8
532.176	703.6
532.577	684.6
532.999	689.8
533.4	686.8
533.822	702.6
534.223	690
534.645	687.4
535.046	693.2
535.468	692.2
535.869	708.8
536.292	691.4
536.693	735.8
537.115	695.8
537.516	689
537.939	686.2
538.34	708.8
538.742	710.4
539.165	687.2
539.566	697.8
539.989	687
540.391	691.6
540.814	692.6
541.216	687.4
541.639	690.6
542.041	696.2
542.464	689.6
542.866	683.2
543.268	683.2
543.691	691.2
544.093	695.4
544.517	710.6
544.919	675.8
545.343	713.4
545.745	680.2
546.147	695.4
546.571	692.2
546.974	680.6
547.398	692.2
547.8	699.8
548.224	676.4
548.627	679.2
549.03	693.8
549.454	677.8
549.857	678
550.281	675.6
550.684	678.4
551.087	693
551.512	688.6
551.915	689.6
552.34	685.8
552.743	678.4
553.146	684.8
553.571	681.6
553.975	711
554.399	671.8
554.803	731.8
555.207	681.8
555.632	676.2
556.036	683.8
556.461	673.8
556.865	682.8
557.268	675.2
557.694	674.6
558.098	683.2
558.502	691.2
558.927	669
559.332	688
559.736	681
560.162	690
560.566	682.4
560.992	682.4
561.396	681.8
561.801	674.6
562.227	688
562.631	677.6
563.036	678
563.462	684.8
563.867	679
564.272	661.8
564.698	683.8
565.103	663.8
565.508	705.8
565.935	684.4
566.34	681
566.745	694.2
567.172	671.8
567.577	696.4
567.982	686.8
568.409	686.8
568.815	673.4
569.22	677.6
569.626	685.6
570.053	659.8
570.459	681.6
570.865	684.4
571.292	674
571.698	677
572.104	658
572.531	665.8
572.937	688
573.343	673.8
573.75	674.2
574.177	678
574.583	683.6
574.99	672.2
575.396	685.4
575.824	674
576.231	687.6
576.637	671.8
577.065	706.4
577.472	668.2
577.879	673.2
578.286	688.4
578.714	668.4
579.121	671.6
579.528	682.8
579.935	689.8
580.364	674
580.771	662.6
581.178	667.4
581.585	670.6
582.014	683.6
582.421	666.8
582.829	676.4
583.236	696
583.644	672.8
584.073	667.6
584.481	675.8
584.889	667.6
585.296	678.8
585.726	674.6
586.134	659.6
586.542	672.4
586.95	695.8
587.358	670.4
587.787	673.2
588.196	655.6
588.604	675.4
589.012	669.4
589.421	670.6
589.851	675.8
590.259	680
590.668	667.8
591.076	716
591.485	664.4
591.894	672
592.324	681.8
592.733	685.8
593.142	665.8
593.551	680.8
593.96	722.8
594.369	660.8
594.8	656.2
595.209	671.4
595.618	652.2
596.028	671.8
596.437	663.2
596.847	669.6
597.256	676.4
597.687	679.6
598.097	673.8
598.507	657.2
598.917	677
599.327	677.2
599.736	679.8
600.146	680
600.556	674
600.988	677
601.398	669.6
601.808	682.8
602.219	656.8
602.629	673.6
603.039	667.8
603.45	706.6
603.86	676
604.271	692.2
604.703	677
605.114	667
605.525	670.4
605.935	676.6
606.346	691.6
606.757	685.4
607.168	672.6
607.579	668.2
607.99	687
608.402	672.4
608.813	676.8
609.224	665.4
609.636	658.4
610.047	658.2
610.48	671.4
610.892	674.2
611.303	677.2
611.715	673.6
612.127	662.6
612.539	677.6
612.95	673.4
613.362	658.8
613.774	660.8
614.186	664.2
614.599	661.4
615.011	680.4
615.423	675.4
615.835	667.8
616.248	659
616.66	673.6
617.073	659.2
617.485	672.4
617.898	673.8
618.311	669.8
618.723	674.4
619.136	704.2
619.549	684.6
619.962	699.6
620.375	668.4
620.788	667.6
621.201	665
621.614	671.8
622.028	664.4
622.441	674.8
622.854	690
623.268	660.8
623.681	678.2
624.095	671.4
624.509	685.8
624.922	679.6
625.336	659.6
625.728	675.4
626.142	681.2
626.556	686
626.97	675.6
627.384	666.4
627.799	674.4
628.213	696.2
628.627	670.4
629.041	661.4
629.456	660.2
629.87	671.8
630.285	677
630.699	676.4
631.093	669.6
631.507	671.2
631.922	670.6
632.337	693.8
632.752	658.2
633.167	660.6
633.582	659.8
633.997	662.2
634.412	661.4
634.806	676.4
635.221	663.4
635.637	687.2
636.052	654
636.468	674.8
636.883	688.4
637.299	671.4
637.715	663.2
638.109	656.2
638.525	657.8
638.941	683
639.357	676.4
639.773	689.6
640.189	669.8
640.584	670.8
641	666.8
641.416	659
641.832	665
642.249	673
642.665	668
643.06	676.4
643.477	675.2
643.894	659
644.31	664.6
644.727	668.8
645.123	669.4
645.54	664.6
645.957	673.8
646.374	682.6
646.77	669.6
647.187	697
647.604	669
648.021	651.4
648.439	664.2
648.835	673.8
649.252	667.8
649.67	666.6
650.088	670
650.484	671
650.902	674
651.32	672.6
651.738	667.8
652.134	680.6
652.552	688.6
652.971	684.8
653.389	666.4
653.786	685.4
654.204	693.4
654.622	657.2
655.019	665.6
655.438	676.2
655.857	676.8
656.275	675
656.673	660.4
657.091	757.6
657.51	653.4
657.908	677.8
658.327	684.8
658.746	659.4
659.144	669
659.563	685
659.982	673.2
660.38	653.8
660.8	670.2
661.219	675
661.617	661.4
662.037	664.4
662.457	677.4
662.855	654
663.275	703.8
663.695	665
664.094	668.2
664.514	670.4
664.934	663.2
665.333	685
665.753	667
666.152	652.6
666.572	662
666.993	683.8
667.392	657.8
667.812	666.6
668.212	661.4
668.632	674.6
669.053	659.2
669.453	674.8
669.874	670.6
670.273	671.4
670.694	658.2
671.116	677.6
671.515	675.4
671.937	664.6
672.337	660.4
672.758	664
673.158	663.8
673.58	649.8
673.98	665
674.402	681.2
674.824	667
675.224	660.2
675.646	658.4
676.047	657.8
676.469	667.2
676.869	673.2
677.292	667.2
677.693	654
678.115	662.6
678.516	672
678.939	665.8
679.34	669.2
679.762	680.4
680.164	673
680.586	653.6
680.988	663.4
681.411	690.2
681.812	665.8
682.236	654.6
682.637	656.8
683.061	659.2
683.462	674.2
683.864	667.4
684.288	669.8
684.69	647.2
685.114	676.6
685.516	673.6
685.94	654
686.342	672.4
686.766	658.4
687.168	656
687.571	692.6
687.995	663.6
688.398	658.2
688.822	657.2
689.225	680.2
689.628	680.4
690.052	666.8
690.456	673.8
690.88	663
691.284	662.4
691.687	667.2
692.112	662
692.515	651.2
692.919	665.6
693.344	667.4
693.747	659.8
694.173	661.2
694.577	681
694.98	669.8
695.406	673.2
695.81	672
696.214	666.4
696.64	670.4
697.044	672
697.448	667.4
697.874	661.2
698.279	664.6
698.684	650.8
699.11	654.4
699.514	666.6
699.919	658.2
700.324	655.2
700.75	663.2
701.156	661.2
701.561	672.8
701.987	671.2
702.393	683.8
702.798	679
703.203	669.6
703.63	660.2
704.036	673.6
704.442	670.4
704.847	655.2
705.274	665.8
705.68	670.4
706.086	670.2
706.492	651.2
706.92	663.4
707.326	675.4
707.732	656.4
708.139	657.2
708.545	653
708.973	662.2
709.38	670.2
709.786	643.8
710.193	677.8
710.6	664.8
711.028	651
711.435	658.4
711.842	663.4
712.249	661.2
712.656	658.4
713.064	675.6
713.492	660.2
713.9	662.4
714.307	664.8
714.715	664.8
715.123	667.8
715.53	668.8
715.938	673.2
716.367	673.2
716.775	672.6
717.184	658.8
717.592	660
718	676.6
718.408	704.8
718.816	717
719.225	673.6
719.633	676.6
720.042	652.8
720.472	662
720.881	686.2
721.29	673.2
721.699	660.2
722.108	664.2
722.517	668.2
722.926	663.6
723.335	675.4
723.744	665.8
724.154	664.2
724.563	661.8
724.973	663.4
725.382	660.2
725.792	661.4
726.202	659.6
726.612	685.2
727.022	661.6
727.432	650.4
779.813	659.8
780.223	723.4
780.634	663.4
781.044	653.2
781.454	664.4
781.865	688
782.276	652.6
782.686	672
783.097	668.6
783.508	666
783.919	669
784.33	674.4
784.741	682.8
785.152	657.2
785.563	641.6
785.974	651.8
786.386	673.4
786.776	654.2
787.188	659.8
787.599	646.4
788.011	670.2
788.423	666.2
788.835	659.4
789.247	646
789.659	658.4
790.071	659.8
790.483	712
790.874	664.2
791.286	660.8
791.699	653.8
792.111	657
792.524	668.4
792.937	660.6
793.349	648.2
793.741	655.6
794.154	655
794.567	685.2
794.98	666
795.393	649
795.785	679.2
796.198	654.8
796.612	668
797.026	655
797.439	642.8
797.831	661
798.245	654.6
798.659	662.2
799.073	661.8
799.487	655.8
799.88	666.6
800.294	657.4
800.708	668.4
801.123	661.6
801.516	679.4
801.93	648.2
802.345	648.4
802.76	654.2
803.153	672.2
803.568	681
803.983	670.4
804.377	669.8
804.792	652.4
805.207	649.8
805.601	665.6
806.016	701.4
806.432	660
806.826	698.6
807.242	672.6
807.658	669.8
808.052	658.4
808.468	661.8
808.884	662.2
809.279	669.8
809.695	676.6
810.111	685.2
810.506	662.2
810.922	690.4
811.339	659.6
811.734	677.4
812.151	664.8
812.546	653.6
812.963	657.6
813.38	659.6
813.776	667.6
814.193	684
814.589	651.8
815.006	656
815.402	660.8
815.82	642.4
816.237	660.6
816.633	664.6
817.051	653.4
817.448	660.2
817.866	655.2
818.262	681.8
818.68	659
819.077	663.2
819.495	656.8
819.892	707.6
820.311	650.8
820.708	664.2
821.127	656.6
821.524	679.6
821.943	667.6
822.34	683.2
822.759	670.6
823.157	661.2
823.576	676.8
823.974	658.2
824.393	781.2
824.791	661.6
825.189	654.8
825.609	656.6
826.007	666.4
826.427	649
826.826	661.4
827.246	657.4
827.644	634.6
828.043	680.8
828.463	662.8
828.862	674.6
829.261	664.6
829.682	651.2
830.081	668
830.502	648
830.901	656.4
831.301	659.2
831.722	650.4
832.121	657.8
832.521	654.2
832.943	668.2
833.342	659.6
833.742	653.6
834.164	656.6
834.564	649.2
834.965	653
835.386	652.2
835.787	660.2
836.188	663
836.588	661.2
837.01	661.8
837.411	657.4
837.812	672.8
838.213	666
838.636	656.2
839.037	734
839.438	667.4
839.84	660.6
840.263	668.8
840.664	663
841.066	651.4
841.468	660
841.891	647
842.293	666.6
842.695	670.2
843.098	667.8
843.5	652.4
843.902	669.2
844.326	664.4
844.729	662.6
845.131	668.8
845.534	662.6
845.937	679.2
846.34	673.4
846.764	651.8
847.167	663.4
847.571	657.8
847.974	666.2
848.377	662.8
848.781	711
849.184	680.4
849.588	659.2
849.992	655.8
850.396	659
850.821	678.6
851.225	663.6
851.63	660.4
852.034	668.2
852.438	661.4
852.843	808.4
853.247	652
853.652	664.8
854.057	684.4
854.462	665.4
854.867	663.8
855.272	700.8
855.677	665.6
856.082	652.4
856.487	650.6
856.893	663.6
857.298	657.2
857.704	645.6
858.11	667.2
858.516	664.8
858.922	666.6
859.328	671.8
859.734	667.2
860.14	673.2
860.525	664.4
860.931	653.2
861.338	657.4
861.745	663.8
862.151	663.8
862.558	656
862.965	646.4
863.372	649.2
863.779	656.6
864.186	688
864.572	657.2
864.98	679
865.387	696.2
865.795	642.8
866.203	678
866.61	655.6
867.018	667.4
867.405	663.8
867.813	660
868.221	656.4
868.63	654
869.038	670.8
869.425	704
869.834	673.8
870.243	654.8
870.652	650.2
871.039	655.6
871.448	661.2
871.857	666.4
872.266	665.2
872.654	663.8
873.064	657.4
873.473	676.6
873.883	654.4
874.271	651
874.681	668.8
875.091	651.4
875.48	671.6
875.89	689.6
876.3	650.8
876.689	658.6
877.1	658.2
877.51	662.8
877.9	680.4
878.31	650.2
878.721	693
879.111	663.8
879.522	657.2
879.933	658.4
880.323	637.6
880.734	650.6
881.125	655.8
881.536	655.2
881.948	656
882.338	662.8
882.75	662
883.141	660
883.553	665.2
883.944	685.8
884.356	673.2
884.769	654.8
885.16	661.4
885.573	665.2
885.964	660
886.377	666.8
886.768	652
887.181	652
887.573	648.4
887.987	665.8
888.378	668
888.792	662.4
889.184	720
889.598	656.4
889.99	653.2
890.383	650.6
890.797	651.4
891.19	667
891.604	657.6
891.997	651
892.411	647.2
892.805	658.6
893.198	652.4
893.613	648.4
894.006	665
894.421	651
894.815	652.6
895.209	651.2
895.624	706.2
896.018	671.4
896.412	653
896.828	652
897.222	665.6
897.617	660.2
898.033	676.2
898.427	664.2
898.822	667.2
899.239	648.2
899.634	647.2
900.029	678.8
900.424	653.4
900.841	642
901.236	658.4
901.632	673
902.027	719
902.445	676.6
902.841	653.6
903.237	648
903.633	674.8
904.05	670
904.447	666.6
904.843	669.6
905.24	660.8
905.636	644.4
906.033	660.2
906.451	672.6
906.848	655.4
907.246	648
907.643	659
908.04	668.6
908.438	674.2
908.835	656.4
909.254	663.2
909.652	665
910.05	659
910.448	653.2
910.846	660.6
911.244	649
911.643	669.2
912.041	654.4
912.44	680.6
912.839	649.6
913.237	655
913.636	648.4
914.035	673.2
914.434	657.2
914.834	669.8
915.233	662.2
915.633	654.2
916.032	653.8
916.432	649.4
916.832	671.6
917.232	654.4
917.632	639
918.032	660.6
918.432	659.6
918.833	658.4
919.233	644.4
919.634	659.2
920.035	660.4
920.436	649.4
920.837	659
921.238	649.2
921.639	652.2
922.019	653
922.42	672.8
922.822	664
923.224	654
923.625	654
924.027	662.4
924.429	677.4
924.81	660.4
925.212	655.6
925.615	652.6
926.017	649.2
926.42	668.2
926.801	653.4
927.204	657.4
927.607	673.6
928.01	668.8
928.413	656.8
928.795	635.2
929.199	642.2
929.602	649
930.006	652.6
930.388	650
930.792	665
931.196	661
931.579	693.8
931.983	651.4
932.388	698.8
932.771	649
933.176	640.6
933.58	661.2
933.964	659.8
934.369	639.6
934.774	664.8
935.158	655.4
935.563	655
935.947	653
936.353	669.6
936.759	662.2
937.143	671.2
937.549	661.8
937.934	670.4
938.34	683.6
938.746	648.4
939.131	665.8
939.538	655
939.923	660.2
940.33	658
940.716	655.8
941.123	663.4
941.508	666.8
941.916	667.8
942.302	667.8
942.709	644.2
943.096	647.6
943.503	659.2
943.89	656.4
944.298	656.4
944.685	686
945.072	654.8
945.48	669.4
945.867	654.2
946.276	659.2
946.663	687
947.051	672.4
947.46	668.8
947.848	660
948.257	649
948.645	655
949.033	655.2
949.443	643.8
949.831	701
950.22	658.4
950.63	658.2
951.018	691.8
951.407	654.2
951.796	650
952.207	653.4
952.596	663.4
952.985	649.4
953.375	709.6
953.786	659
954.176	657
954.566	669
954.956	646.6
955.367	664
955.758	683
956.148	644
956.539	675.4
956.929	649.6
957.341	637.8
957.732	654.2
958.123	668.4
958.515	647.8
958.906	660.2
959.297	653.2
959.689	652.8
960.102	645.4
960.494	657.4
960.886	657.6
961.278	655
961.67	680.6
962.062	699.4
962.455	656.8
962.847	644.2
963.24	650.2
963.633	653.2
964.026	647.6
964.419	660.8
964.812	660.2
965.206	652.2
965.599	658
965.993	651
966.386	649.4
966.78	659.2
967.174	664.6
967.569	655.6
967.963	644
968.357	647.6
968.752	650.6
969.146	648.4
969.541	645.6
969.936	655
970.331	655.4
970.705	653
971.1	651.6
971.496	658.4
971.892	647.6
972.287	654.8
972.683	653.2
973.079	653
973.454	669.2
973.85	664.2
974.247	663.8
974.643	689
975.04	659.2
975.415	667.8
975.812	651
976.209	653.4
976.607	649.8
976.982	662.2
977.38	687.4
977.778	652.6
978.175	651.4
978.552	657.2
978.95	663.2
979.348	661.8
979.725	710.4
980.123	651.4
980.522	661.6
980.899	660
981.298	652.4
981.697	656.8
982.075	644.4
982.474	656
982.852	662.2
983.251	656.6
983.651	651.4
984.029	668.6
984.429	658.4
984.808	645
985.208	654.8
985.609	637
985.987	640.8
986.388	644.2
986.768	661.8
987.168	645.6
987.548	663.8
987.949	661
988.329	665.2
988.731	642.6
989.111	651.6
989.491	649.2
989.893	646.8
990.273	658.2
990.676	642.4
991.057	637.2
991.459	645.8
991.84	649
992.221	644.2
992.624	673.8
993.006	659.6
993.388	653.2
993.791	663.8
994.173	667
994.576	694.6
994.959	647.2
995.341	653.4
995.724	652.8
996.128	645.8
996.511	656.2
996.894	652.2
997.298	638
997.681	657.4
998.065	659.8
998.448	644.4
998.854	667.4
999.237	656
999.621	669.6
1000.01	676.4
1000.39	663.6
1000.8	653.8
1001.18	669.8
1001.56	664.6
1001.95	670.2
1002.33	666.8
1002.72	655.6
1003.13	659.6
1003.51	652.8
1003.9	657.2
1004.28	680.2
1004.67	646
1005.06	660.2
1005.44	682.2
1005.83	641.6
1006.21	654
1006.6	650.8
1006.99	668
1007.37	671.8
1007.76	662.2
1060.12	647
1060.51	652.4
1060.89	656
1061.28	665.4
1061.67	664.8
1062.06	664
1062.45	652.6
1062.83	648.6
1063.22	667.8
1063.61	693.6
1064	654.2
1064.39	651.2
1064.78	652.8
1065.14	668.4
1065.53	659.6
1065.92	648
1066.31	661.4
1066.7	661.2
1067.09	671.4
1067.46	653.6
1067.85	653.2
1068.24	647.6
1068.63	663.2
1069.02	649.4
1069.39	661.4
1069.78	650.4
1070.17	648.8
1070.57	643.4
1070.93	653.8
1071.33	656.8
1071.72	645.8
1072.11	646.2
1072.48	645.2
1072.87	652.4
1073.26	660
1073.64	648.6
1074.03	647.8
1074.4	655.4
1074.79	649.6
1075.19	650.4
1075.56	648.4
1075.95	653
1076.34	650
1076.72	647
1077.11	659.4
1077.48	668.4
1077.88	653.6
1078.25	642.2
1078.64	655.8
1079.02	659.4
1079.41	664.4
1079.78	644.6
1080.18	646.8
1080.55	735.2
1080.95	641.2
1081.32	630.8
1081.72	651.6
1082.09	647.8
1082.49	649.6
1082.86	654.4
1083.24	640.8
1083.63	638.4
1084.01	648.4
1084.38	658
1084.78	643.6
1085.16	652.6
1085.55	668.4
1085.93	667.4
1086.31	642.2
1086.7	691
1087.08	654.8
1087.46	654
1087.83	654
1088.23	661.2
1088.61	646.2
1088.99	657
1089.36	653.4
1089.76	648
1090.14	647.2
1090.52	646.2
1090.9	646.4
1091.27	660.4
1091.67	683.2
1092.05	650.2
1092.43	644
1092.81	658
1093.19	656.2
1093.57	644.8
1093.95	654.2
1094.35	666.4
1094.73	660.4
1095.11	648
1095.49	641.2
1095.87	650.4
1096.25	669.4
1096.63	660.2
1097.01	643.8
1097.39	658
1097.77	649.6
1098.15	664.2
1098.53	644
1098.91	651
1099.29	650.4
1099.68	678.6
1100.06	667.8
1100.44	658
1100.82	660.8
1101.18	665.4
1101.56	642.4
1101.95	643.8
1102.33	651.4
1102.71	657.4
1103.1	650.2
1103.48	636.4
1103.86	646
1104.22	658.2
1104.61	649.2
1104.99	641.8
1105.38	644.2
1105.76	656.8
1106.12	639
1106.51	689.6
1106.89	672.4
1107.26	654.6
1107.64	659.4
1108.03	648.2
1108.41	640.8
1108.78	654
1109.16	658.4
1109.55	660.2
1109.91	643.4
1110.3	648.6
1110.69	666
1111.05	652.6
1111.44	657
1111.8	658.2
1112.19	644
1112.58	652.6
1112.94	646.8
1113.33	642.4
1113.7	643.2
1114.09	636.8
1114.45	645.6
1114.84	653.8
1115.21	661
1115.6	651.4
1115.96	658.4
1116.35	656.4
1116.72	642
1117.11	664
1117.48	654
1117.85	667
1118.24	677
1118.6	657
1118.99	654.8
1119.36	658.4
1119.73	653.2
1120.12	659.4
1120.49	646.6
1120.86	665.8
1121.25	653.6
1121.62	644
1121.99	652.8
1122.38	665
1122.76	655.6
1123.13	652.2
1123.5	661.2
1123.89	664
1124.26	643.8
1124.63	652.2
1125	649.4
1125.4	650
1125.77	650.6
1126.14	630.2
1126.51	641.4
1126.88	659
1127.26	650
1127.63	643
1128.02	644.6
1128.4	645
1128.77	646.2
1129.14	648
1129.52	643.8
1129.89	648.2
1130.26	645.4
1130.64	643.2
1131.01	642
