#lambda/nm	C1
208.295	561
208.67	503.2
209.045	464
209.419	468.2
209.794	691.2
210.169	670.2
210.544	815.2
210.919	692.6
211.295	669.8
211.67	680.6
212.045	686.2
212.421	681.8
212.796	726
213.172	680.6
213.547	678.8
213.923	686.4
214.299	677.8
214.675	691.8
215.051	689.4
215.427	699.4
215.803	709.8
216.179	680.8
216.555	687.2
216.932	693.4
217.308	681.6
217.684	681.2
218.061	687.8
218.438	682.8
218.814	672.4
219.191	690.6
219.568	675
219.945	684.4
220.322	687.8
220.699	684.4
221.076	693.8
221.453	696.4
221.83	680.6
222.208	676
222.585	680.2
222.962	696.8
223.34	689.8
223.717	687.8
224.095	689
224.473	686.2
224.851	680.4
225.229	674.6
225.607	695
225.985	678
226.363	690.8
226.741	694.2
227.119	691.2
227.497	707.2
227.876	672.2
228.254	690
228.633	691
229.011	690.6
229.39	682
229.769	693.2
230.148	695.2
230.527	714.2
230.905	683.2
231.284	690.4
231.664	673.4
232.043	704.4
232.422	698.2
232.801	686
233.181	700
233.56	683.6
233.94	684.4
234.319	668.4
234.699	683.4
235.079	738.2
235.458	726.2
235.838	705.6
236.218	681
236.598	671.8
236.978	683
237.358	680.4
237.738	677.4
238.119	689
238.499	682.6
238.88	691
239.26	707.6
239.641	678.4
240.021	677
240.402	683.6
240.783	682.8
241.163	691.2
241.544	691.2
241.925	682
242.306	706.2
242.687	684
243.069	686
243.45	686.2
243.831	680
244.212	683.8
244.594	727.2
244.975	691.6
245.357	690.2
245.739	678.8
246.12	692
246.502	697.4
246.884	688.4
247.266	683
247.648	685.8
248.03	714.6
248.412	691.4
248.794	691
249.176	682.4
249.559	694.6
249.941	676.8
250.323	678.6
250.706	685.4
251.089	683.4
251.471	683.8
251.854	681.6
252.237	686.2
252.62	695.4
253.002	691.8
253.385	679.4
253.769	700.6
254.152	685.8
254.535	694.2
254.918	677.6
255.301	685.2
255.685	683.4
256.068	680.4
256.452	717.2
256.835	702.4
257.219	698
257.603	706.2
257.986	678
258.37	693.4
258.754	676.4
259.138	697.6
259.522	692.4
259.906	679
260.29	688.4
260.675	681.6
261.059	685.6
261.443	675.2
261.828	697
262.212	689.8
262.597	664
262.981	681
263.366	701.6
263.751	683.6
264.136	680
264.521	678.8
264.906	672.4
265.291	699.4
265.676	682.4
266.061	690.6
266.446	710.6
266.831	689.6
267.217	702.2
267.602	685.4
267.987	678.6
268.373	684.4
268.759	697.6
269.144	699.6
269.53	681.2
269.916	677
270.302	683
270.688	694
271.074	686.2
271.46	701.2
271.846	723.2
272.232	684
272.618	675.2
273.004	686.6
273.391	689.4
273.777	704
274.164	689
274.55	698.2
274.937	691.8
275.324	683.8
275.71	681.8
276.097	685.8
276.484	674
276.871	689.4
277.258	685.8
277.645	671
278.032	681.2
278.419	677
278.807	681
279.194	680.2
279.581	679.6
279.969	694.6
280.356	684.2
280.744	690.2
281.131	711.8
281.519	698.6
281.907	683
282.295	680.2
282.682	702
283.07	682.2
283.458	693.2
283.846	704.6
284.235	697.4
284.623	705.2
285.011	671.4
285.399	683.8
285.788	682.6
286.176	684
286.565	703.4
286.953	688.2
287.342	683.2
287.731	686.6
288.119	680.2
288.508	686.4
288.897	690.2
289.286	674.4
289.675	689.8
290.064	705.6
290.453	681.6
290.821	676.2
291.21	702.4
291.599	678
291.989	683.8
292.378	686.8
292.768	706
293.157	693.8
293.547	694.2
293.936	686
294.326	687.4
294.716	691.2
295.106	685.8
295.496	690.8
295.886	701.2
296.276	685.8
296.666	680.6
297.056	683.2
297.446	676.6
297.836	704.4
298.227	682.8
298.617	691.4
299.008	701.2
299.398	688.6
299.789	688
300.179	686
300.57	707.2
300.961	679.8
301.352	680
301.742	693.2
302.133	685.6
302.524	678.6
302.915	696
303.307	680.6
303.698	701
304.089	690.4
304.48	683.4
304.872	698.8
305.263	692.4
305.655	680.6
306.046	701.2
306.438	695.2
306.829	678.2
307.221	704.6
307.613	694.6
308.005	704
308.397	702.6
308.789	704.2
309.181	731.8
309.573	706.2
309.965	705.4
310.357	694.8
310.749	704.8
311.142	688.4
311.534	686.8
311.926	701.8
312.319	688
312.711	679.6
313.104	704.6
313.497	692.4
313.889	737.8
314.282	715.2
314.675	714.4
315.068	696.4
315.461	696.6
315.854	727
316.247	697.8
316.64	690.8
317.033	685.4
317.405	701
317.798	692.4
318.192	698.6
318.585	679.4
318.979	691
319.372	687
319.766	687
320.16	695.8
320.553	701.8
320.947	706.6
321.341	685.2
321.735	691.8
322.129	680.4
322.523	713.4
322.917	683.2
323.311	698.2
323.705	694.4
324.099	690.2
324.494	717
324.888	705.8
325.282	689.6
325.677	704
326.071	706.4
326.466	701
326.861	690.4
327.255	704.2
327.65	706
328.045	709.8
328.44	695.6
328.835	691.6
329.23	676.2
329.625	717.2
330.02	681.8
330.415	717.8
330.81	695.8
331.206	687.6
331.601	693.6
331.996	697.6
332.37	714.6
332.766	679
333.161	721.2
333.557	677.4
333.953	700.2
334.348	1073.2
334.744	693
335.14	687
335.536	691.4
335.932	707.2
336.328	693.6
336.724	693.8
337.12	683.4
337.516	695.8
337.913	694
338.309	715.2
338.705	686.2
339.102	697.2
339.498	680.6
339.895	704.4
340.291	687.4
340.688	700.8
341.085	686.6
341.481	685.6
341.878	686.4
342.275	718.6
342.672	681
343.069	685.4
343.466	677.8
343.842	704.6
344.239	680.2
344.636	680.2
345.033	678.6
345.431	679.2
345.828	697.8
346.225	678.6
346.623	725.8
347.02	690.8
347.418	705
347.816	707.2
348.213	677.8
348.611	687.8
349.009	679.6
349.407	703.4
349.805	672.6
350.203	680.4
350.601	693.6
350.999	683
351.397	751.2
351.795	685.4
352.193	695
352.57	695.4
352.969	692.2
353.367	673
353.766	675.4
354.164	688.6
354.563	695.8
354.961	685
355.36	677.2
355.759	677.4
356.158	677.4
356.557	674.8
356.956	673.8
357.355	675.6
357.754	694
358.153	685.8
358.552	713.6
358.951	679.4
359.35	699.6
359.75	679.2
360.149	676
360.527	669.6
360.926	675
361.326	687.2
361.726	680.6
362.125	677.6
362.525	691
362.925	679.6
363.325	685.8
363.724	690
364.124	669.6
364.524	670
364.924	679.2
365.324	694.4
365.725	664
366.125	682
366.525	685
366.904	671.6
367.304	659.4
367.705	703
368.105	695.6
368.506	673.8
368.906	684
369.307	675.2
369.708	700
370.108	676.6
370.509	695.8
370.91	668.6
371.311	690.4
371.712	680.8
372.113	674.8
372.514	668.8
372.894	676.4
373.295	670.4
373.696	696.2
374.097	686.8
374.499	719.2
374.9	694.2
375.301	686
375.703	690.8
376.105	676.6
376.506	689.4
376.908	680.6
377.309	684
377.711	676.8
378.113	669.6
378.493	679
378.895	674.6
379.297	678.2
379.699	662.8
380.102	679.8
380.504	672.2
380.906	672.6
381.308	700.2
381.71	676.2
382.113	681.8
382.515	676.2
382.918	684.4
383.299	678.8
383.701	692.8
384.104	684.4
384.507	657.4
384.909	679.2
385.312	661
385.715	670.4
386.118	679.4
386.521	670
386.924	683.6
387.327	676.6
387.709	669.4
388.112	664.4
388.515	676.4
388.918	687.2
389.322	683.4
389.725	670.6
390.129	707
390.532	681.6
390.936	675.2
391.339	668.6
391.743	691
392.125	669.8
392.529	685.2
392.933	692.4
393.337	681.4
393.74	677.4
394.144	679.4
394.548	670.8
394.953	676.2
395.357	682.8
395.761	676.2
396.144	676.4
396.548	677.2
396.952	680.4
397.357	684.4
397.761	674.4
398.166	677.6
398.57	679.6
398.975	671.4
399.379	683.6
399.763	735.6
400.168	681.6
400.572	666.6
400.977	670.4
401.382	699.4
401.787	690.6
402.192	697.6
402.597	702.2
403.002	663
403.386	693.2
403.791	706.6
404.197	675.2
404.602	680
405.007	682
405.413	680.4
405.818	681.6
406.224	681.4
406.608	675
407.014	669
407.42	696
407.825	676.4
408.231	691.6
408.637	685.2
409.043	700.6
409.449	676
409.834	672.2
410.24	692
410.646	701.8
411.052	695.8
411.458	691.8
411.865	687.4
412.271	686.2
412.677	687.2
413.062	683.4
413.469	675
413.875	710.4
414.282	691.6
414.689	682
415.095	693.2
415.502	672
415.888	690.2
416.294	667.6
416.701	729.2
417.108	667.6
417.515	692.6
417.923	687
418.33	708.4
418.715	693
419.123	686.6
419.53	679
419.937	688.8
420.345	709.6
420.752	673.2
421.16	708.6
421.546	678.2
421.953	692
422.361	665.8
422.769	691.2
423.177	672.4
423.585	713
423.992	710.4
424.379	695.8
424.787	693.8
425.195	699.6
425.603	677
426.011	700.2
426.419	709.2
426.806	685.4
427.214	681
427.623	689.2
428.031	695.6
428.44	687
428.848	697.4
429.235	702.6
429.644	685.6
430.053	687.8
430.461	703.8
430.87	713.8
431.279	693
431.666	682.4
432.075	692.6
432.484	698.8
432.893	686.4
433.302	707.2
433.711	744
434.099	693.4
434.508	684.4
434.918	681
435.327	699.6
435.737	695.8
436.125	686.6
436.534	689
436.944	698.6
437.353	710.4
437.763	722.2
438.173	688.2
438.561	703.2
438.971	689
439.381	694.2
439.791	704
440.201	683.4
440.589	716.6
440.999	719.8
441.409	699
441.819	698.2
442.23	713
442.619	714
443.029	708.6
443.439	706.8
443.85	728.6
444.26	728.6
444.649	714.8
445.06	710
445.471	711
445.881	712.4
446.292	734.6
446.682	737.8
447.092	703.2
447.503	779
447.914	725.2
448.325	718.4
448.715	724.4
449.126	704.6
449.537	724.2
449.948	727.2
450.338	720.4
450.75	737.2
451.161	733.2
451.572	730.4
451.984	717.4
452.374	701.8
452.786	721.4
453.197	728.6
453.609	730
453.999	707.4
454.411	715.8
454.823	740
455.235	719.4
455.647	715
456.037	732.6
456.449	706.6
456.862	714
457.274	733.6
457.665	719
458.077	734.6
458.489	767.2
458.902	713.4
459.293	725.6
459.705	722
460.118	727
460.53	728
460.921	724
461.334	735.4
461.747	729.6
462.16	748.8
462.551	744.6
462.964	736
463.377	716.6
463.79	724
464.182	742.6
464.595	719.6
465.008	734.6
465.421	743.6
465.813	731
466.226	737
466.64	728.4
467.053	779.8
467.445	742
467.859	741.6
468.272	739.6
468.686	742.8
469.078	731.6
469.492	717
469.906	736.8
470.298	741
470.712	724.6
471.126	789.8
471.54	716.2
471.933	723.8
472.347	725.2
472.761	720.4
473.175	712.4
473.568	728.2
473.982	728.2
474.397	734.6
474.79	734.4
475.204	736.6
475.619	727.8
476.033	744.6
476.426	728.4
476.841	722.8
477.256	763
477.649	723.2
478.064	718.6
478.479	729.8
478.872	725.2
479.287	711
479.702	727.6
480.118	733
480.511	728.8
480.927	728
481.342	723.4
481.736	728.6
482.151	710.8
482.566	732.4
482.96	723.4
483.376	732.4
483.792	718.6
484.186	726.6
484.602	715.2
485.017	723
485.412	728.8
485.827	727.4
486.243	725.4
486.638	747.4
487.054	729.8
487.47	732.2
487.865	716.4
488.281	713.4
488.697	714
489.092	730.6
489.508	713
489.925	733.4
490.32	709.6
490.736	728
491.153	735.6
491.548	726.8
491.964	731.4
492.381	714.8
492.776	727.2
493.193	724
493.61	729.2
494.006	716.6
494.422	731.8
494.84	713.6
495.235	733.4
495.652	724.2
496.069	720
496.465	709.8
496.883	715.4
497.3	742.8
497.696	703.4
498.113	723
498.509	701.8
498.927	706.2
499.344	706.4
499.741	711.6
500.158	718.6
500.576	722.4
500.973	706.6
501.39	708
501.787	708
502.205	708.8
502.623	710
503.02	707.4
503.438	696.8
503.856	705.4
504.253	713.4
504.671	715.6
505.068	695.6
505.486	707.4
505.905	732.6
506.302	705.8
506.72	719.8
507.118	702.6
507.536	699.2
507.955	709.4
508.352	718
508.771	720.6
509.169	706.2
509.587	707.2
510.006	715
510.404	698.8
510.823	705.2
511.221	702
511.64	701.2
512.038	716.8
512.457	697.2
512.877	708.2
513.275	702.6
513.694	697.2
514.092	701.4
514.512	702.4
514.91	704.6
515.33	703.4
515.749	709.4
516.148	705.2
516.568	711.6
516.966	706.2
517.386	701
517.785	696.2
518.205	700.2
518.603	691
519.024	694.4
519.444	700.8
519.843	710.4
520.263	710.6
520.662	700.4
521.082	698.2
521.481	705.4
521.902	698.8
522.301	695.2
522.722	707
523.121	702.2
523.542	689.6
523.963	689.8
524.362	695.6
524.783	697
525.183	691.8
525.604	700.8
526.003	683
526.425	691.4
526.824	695.8
527.246	702.8
527.646	707.2
528.067	689.2
528.467	693.4
528.888	684.6
529.289	691.6
529.71	685.8
530.11	676.8
530.532	684.8
530.932	679.6
531.354	679.2
531.755	736
532.176	704.2
532.577	681.2
532.999	695
533.4	684.2
533.822	705.4
534.223	698
534.645	689
535.046	685.6
535.468	691.8
535.869	705.6
536.292	681.2
536.693	728.4
537.115	693.4
537.516	686.6
537.939	685
538.34	700.2
538.742	695.8
539.165	693.6
539.566	681.8
539.989	679.8
540.391	679.4
540.814	689.6
541.216	689
541.639	690.8
542.041	702.4
542.464	683.8
542.866	678.8
543.268	673.2
543.691	686.8
544.093	693.6
544.517	710
544.919	683.6
545.343	711.2
545.745	675.4
546.147	681
546.571	679.4
546.974	677.8
547.398	692.4
547.8	693.2
548.224	683.8
548.627	683.4
549.03	690.2
549.454	680.8
549.857	671.8
550.281	671
550.684	681.6
551.087	697.2
551.512	686
551.915	677.8
552.34	680.4
552.743	674
553.146	678.2
553.571	677.4
553.975	698.4
554.399	673.8
554.803	732.6
555.207	678.6
555.632	665.6
556.036	686.8
556.461	669.2
556.865	680.8
557.268	671.2
557.694	671.2
558.098	683
558.502	688.8
558.927	675.6
559.332	678
559.736	680.2
560.162	679.2
560.566	676
560.992	686.4
561.396	675.6
561.801	674
562.227	685.2
562.631	672
563.036	677
563.462	687.4
563.867	678.8
564.272	663.6
564.698	674.2
565.103	660.8
565.508	693.6
565.935	670.4
566.34	676.8
566.745	693.4
567.172	668.2
567.577	700.6
567.982	696.8
568.409	678.8
568.815	674.6
569.22	674
569.626	686
570.053	657.2
570.459	679.2
570.865	684.2
571.292	681.4
571.698	673.2
572.104	652.4
572.531	670
572.937	684.4
573.343	670.4
573.75	663.4
574.177	676.2
574.583	680.8
574.99	676
575.396	676.8
575.824	669
576.231	676.4
576.637	670
577.065	699.8
577.472	668
577.879	669
578.286	691.4
578.714	667
579.121	675.8
579.528	676.8
579.935	676.4
580.364	673.8
580.771	654.8
581.178	659.4
581.585	666.2
582.014	680.2
582.421	664.4
582.829	667.6
583.236	681.8
583.644	667.8
584.073	663
584.481	678
584.889	664.8
585.296	678.8
585.726	662.8
586.134	658
586.542	663.2
586.95	686
587.358	654.4
587.787	668
588.196	651
588.604	662.8
589.012	666.4
589.421	662.4
589.851	658.2
590.259	666.4
590.668	663.4
591.076	702.2
591.485	655.2
591.894	673.8
592.324	683.2
592.733	682.8
593.142	652.8
593.551	669
593.96	704.4
594.369	651.4
594.8	651.4
595.209	666.2
595.618	650.4
596.028	666.8
596.437	664
596.847	668.2
597.256	673.4
597.687	674.4
598.097	665.6
598.507	655.2
598.917	667.8
599.327	677.6
599.736	674.2
600.146	678.8
600.556	666.2
600.988	680.8
601.398	670.4
601.808	677
602.219	654.8
602.629	664
603.039	667.8
603.45	699.8
603.86	654.6
604.271	681.4
604.703	666.6
605.114	658.2
605.525	669.6
605.935	663.2
606.346	682.8
606.757	677.6
607.168	664.2
607.579	665.8
607.99	675.4
608.402	668.4
608.813	672.2
609.224	665.6
609.636	657
610.047	652.6
610.48	666
610.892	675
611.303	679.8
611.715	666
612.127	663.8
612.539	658
612.95	666.4
613.362	652.8
613.774	656.8
614.186	666
614.599	661.6
615.011	671.6
615.423	662.6
615.835	659
616.248	654.2
616.66	675.8
617.073	654.6
617.485	652.4
617.898	673.6
618.311	672.8
618.723	666.2
619.136	692
619.549	678.8
619.962	693.6
620.375	664.6
620.788	657.4
621.201	663.6
621.614	678.4
622.028	662
622.441	672
622.854	682.8
623.268	665.4
623.681	677.4
624.095	666.6
624.509	677.4
624.922	666.6
625.336	658.4
625.728	667.8
626.142	672
626.556	685.6
626.97	665.6
627.384	664
627.799	675.8
628.213	677.4
628.627	661.8
629.041	661.8
629.456	657
629.87	658.2
630.285	676.8
630.699	677.4
631.093	661
631.507	665.4
631.922	671.4
632.337	675
632.752	658.2
633.167	661.8
633.582	657.4
633.997	665.6
634.412	658.4
634.806	670.6
635.221	649.6
635.637	677.8
636.052	644.8
636.468	665.2
636.883	682.8
637.299	657.2
637.715	651
638.109	659.4
638.525	656.8
638.941	674
639.357	668
639.773	681
640.189	659.6
640.584	670.2
641	665.4
641.416	654.2
641.832	662.6
642.249	663.4
642.665	665.4
643.06	671.2
643.477	672.4
643.894	651
644.31	662
644.727	662
645.123	663
645.54	654.2
645.957	666.2
646.374	686.4
646.77	662
647.187	696.4
647.604	670
648.021	644.6
648.439	658
648.835	673.4
649.252	665.8
649.67	661.4
650.088	660.2
650.484	668.6
650.902	676.8
651.32	676.6
651.738	660
652.134	661.6
652.552	688.6
652.971	668
653.389	669.2
653.786	683.4
654.204	683.2
654.622	652
655.019	660.2
655.438	665.8
655.857	670.2
656.275	669.8
656.673	652.6
657.091	737.6
657.51	652.8
657.908	675
658.327	679.8
658.746	652.6
659.144	652.8
659.563	674.4
659.982	662
660.38	646.8
660.8	669
661.219	674.4
661.617	665.8
662.037	660.4
662.457	682.2
662.855	650.4
663.275	691.2
663.695	663.4
664.094	660.6
664.514	667.8
664.934	657.4
665.333	668.4
665.753	655.2
666.152	656.8
666.572	651.8
666.993	678.2
667.392	649
667.812	662.4
668.212	662.2
668.632	674
669.053	655.6
669.453	670.4
669.874	662.2
670.273	668.2
670.694	655
671.116	669.8
671.515	668.8
671.937	665.8
672.337	661.2
672.758	661.8
673.158	668.4
673.58	653.8
673.98	667.6
674.402	682.8
674.824	659.4
675.224	652.4
675.646	654.2
676.047	653.2
676.469	655
676.869	666.4
677.292	668.2
677.693	656.6
678.115	660
678.516	663.6
678.939	662.4
679.34	653.4
679.762	679.4
680.164	667.8
680.586	649.8
680.988	667.2
681.411	689
681.812	662.6
682.236	652.6
682.637	653.2
683.061	653.6
683.462	661.2
683.864	653.2
684.288	667.4
684.69	651.4
685.114	671.6
685.516	669.4
685.94	647.4
686.342	675.6
686.766	661.4
687.168	659.8
687.571	682.6
687.995	664.8
688.398	647
688.822	658
689.225	681.6
689.628	681.4
690.052	657.4
690.456	667
690.88	666.2
691.284	656.8
691.687	669.4
692.112	654
692.515	643.8
692.919	658.2
693.344	659.4
693.747	656.4
694.173	656
694.577	673.2
694.98	662.4
695.406	651.4
695.81	657.4
696.214	659.4
696.64	659
697.044	657.4
697.448	668.2
697.874	652.8
698.279	660.8
698.684	645.6
699.11	648.6
699.514	663
699.919	657.4
700.324	657.8
700.75	659.8
701.156	666.2
701.561	672.6
701.987	669.2
702.393	683.8
702.798	681.6
703.203	663
703.63	658.4
704.036	665.4
704.442	662.8
704.847	655.4
705.274	652.4
705.68	668
706.086	669
706.492	649.6
706.92	653
707.326	672.2
707.732	660
708.139	650.6
708.545	651.2
708.973	652.2
709.38	659.4
709.786	649.6
710.193	670.2
710.6	667.6
711.028	653.8
711.435	665
711.842	658
712.249	662
712.656	660.8
713.064	663.6
713.492	649.8
713.9	663.6
714.307	670.2
714.715	663.2
715.123	660.2
715.53	671.2
715.938	671.6
716.367	662.6
716.775	656.4
717.184	650.6
717.592	653.8
718	675.4
718.408	697.4
718.816	706.6
719.225	664
719.633	666.8
720.042	644.8
720.472	661.2
720.881	682.8
721.29	656
721.699	653.8
722.108	670
722.517	668.4
722.926	665.8
723.335	677.6
723.744	659
724.154	655.6
724.563	659.4
724.973	664.2
725.382	658.4
725.792	653.8
726.202	655.8
726.612	683.6
727.022	661
727.432	659.6
779.813	650.4
780.223	707
780.634	661
781.044	651
781.454	662
781.865	673
782.276	648.6
782.686	665.8
783.097	655.4
783.508	651.8
783.919	664.6
784.33	672.8
784.741	667.6
785.152	643.4
785.563	640.6
785.974	645.4
786.386	675.6
786.776	651.8
787.188	657.6
787.599	646
788.011	667.2
788.423	658.2
788.835	651.6
789.247	647.8
789.659	649.4
790.071	649.4
790.483	697.8
790.874	657.2
791.286	671.6
791.699	653.6
792.111	660.8
792.524	658.4
792.937	653.8
793.349	653.2
793.741	650.6
794.154	654.4
794.567	674.4
794.98	668
795.393	644
795.785	676.2
796.198	653.4
796.612	658
797.026	655
797.439	641.6
797.831	649.2
798.245	651
798.659	649.8
799.073	649
799.487	650.4
799.88	651.4
800.294	665.8
800.708	660.4
801.123	658.6
801.516	676.8
801.93	644.8
802.345	648.2
802.76	662.4
803.153	677.6
803.568	671
803.983	666
804.377	658.8
804.792	648.8
805.207	643.4
805.601	661.2
806.016	700.8
806.432	649.4
806.826	697
807.242	664.6
807.658	659
808.052	659.6
808.468	656.8
808.884	648.8
809.279	660
809.695	669.4
810.111	686
810.506	665.4
810.922	685.6
811.339	648.6
811.734	663
812.151	666.6
812.546	651
812.963	654.6
813.38	664
813.776	665.6
814.193	681
814.589	652
815.006	656.4
815.402	646.8
815.82	649.6
816.237	651.6
816.633	655.6
817.051	650.6
817.448	664.4
817.866	657
818.262	677.2
818.68	652.2
819.077	653.6
819.495	653
819.892	699.2
820.311	648.8
820.708	645.6
821.127	653.8
821.524	666.4
821.943	663.6
822.34	684
822.759	659
823.157	658.2
823.576	665.6
823.974	658.6
824.393	781
824.791	655
825.189	642.4
825.609	657
826.007	661.6
826.427	647.4
826.826	660.2
827.246	662.6
827.644	645
828.043	674.8
828.463	659
828.862	674.2
829.261	672
829.682	650.8
830.081	668.8
830.502	640.2
830.901	666
831.301	650.4
831.722	642.6
832.121	656.8
832.521	651.8
832.943	661.2
833.342	660.8
833.742	645.4
834.164	651.2
834.564	641
834.965	654.2
835.386	652.4
835.787	651.4
836.188	650.4
836.588	661.4
837.01	649.8
837.411	646.6
837.812	668.8
838.213	656
838.636	649.8
839.037	724.2
839.438	658.2
839.84	661.4
840.263	667
840.664	665.6
841.066	656.2
841.468	656
841.891	649.6
842.293	667.6
842.695	668.8
843.098	664
843.5	652.4
843.902	664
844.326	661.4
844.729	657
845.131	665.6
845.534	653.8
845.937	672.6
846.34	672.8
846.764	643
847.167	659
847.571	644.6
847.974	646.4
848.377	650.2
848.781	705.8
849.184	665.4
849.588	653.4
849.992	658.8
850.396	656.6
850.821	679.6
851.225	650
851.63	654.6
852.034	670.6
852.438	662.6
852.843	789.2
853.247	658.8
853.652	651.8
854.057	675.6
854.462	663.4
854.867	659.6
855.272	678.2
855.677	667.8
856.082	659
856.487	641.6
856.893	667.2
857.298	653.8
857.704	653
858.11	656.6
858.516	658.2
858.922	668
859.328	659.4
859.734	661
860.14	656.4
860.525	658
860.931	649.2
861.338	641.8
861.745	656.8
862.151	658.2
862.558	655.8
862.965	645.4
863.372	648.2
863.779	647.6
864.186	672.2
864.572	651
864.98	677.2
865.387	700.2
865.795	640.2
866.203	660.6
866.61	639.6
867.018	658
867.405	657.2
867.813	656.8
868.221	653
868.63	652.6
869.038	653.6
869.425	693.8
869.834	662.4
870.243	652.6
870.652	655.4
871.039	648.8
871.448	647.8
871.857	665.4
872.266	660
872.654	657
873.064	653
873.473	670.8
873.883	657.2
874.271	653.6
874.681	669.4
875.091	646.4
875.48	669.2
875.89	676.8
876.3	658.8
876.689	638.4
877.1	654.6
877.51	655.4
877.9	677.6
878.31	645.2
878.721	685
879.111	658.8
879.522	651.2
879.933	650
880.323	649.2
880.734	639.6
881.125	654.8
881.536	653
881.948	642.6
882.338	650.4
882.75	663.8
883.141	649.6
883.553	658.4
883.944	685.4
884.356	657.8
884.769	654.4
885.16	658.8
885.573	649.2
885.964	641.6
886.377	653
886.768	647.8
887.181	650.6
887.573	643.4
887.987	668.8
888.378	668.4
888.792	663.2
889.184	699.4
889.598	645.2
889.99	658.2
890.383	657.8
890.797	643
891.19	670
891.604	649.6
891.997	645.2
892.411	651
892.805	644.8
893.198	656.4
893.613	637.4
894.006	654.2
894.421	642.2
894.815	652.8
895.209	651.6
895.624	694.8
896.018	672.6
896.412	648.2
896.828	643.4
897.222	659.2
897.617	657
898.033	678.6
898.427	652.4
898.822	659.2
899.239	635.4
899.634	652.4
900.029	670.4
900.424	644.6
900.841	640.4
901.236	662.4
901.632	657.4
902.027	723.4
902.445	663
902.841	647.6
903.237	658.2
903.633	670
904.05	662.2
904.447	660.2
904.843	664.8
905.24	645.8
905.636	643.4
906.033	656.8
906.451	668
906.848	643.4
907.246	655.4
907.643	652.8
908.04	658.4
908.438	672.8
908.835	655.8
909.254	655.4
909.652	653.6
910.05	653.4
910.448	651.4
910.846	663.2
911.244	646.6
911.643	652
912.041	651.4
912.44	676.6
912.839	652.4
913.237	651
913.636	645.8
914.035	664.6
914.434	655.8
914.834	663.6
915.233	663.4
915.633	653.2
916.032	646.2
916.432	649.2
916.832	663.8
917.232	649
917.632	636.8
918.032	651.8
918.432	649.6
918.833	652
919.233	654.4
919.634	639.8
920.035	657
920.436	642.6
920.837	658.2
921.238	644.6
921.639	646
922.019	662.8
922.42	658.4
922.822	658.2
923.224	648
923.625	645.6
924.027	651
924.429	677.6
924.81	655.4
925.212	663.4
925.615	652
926.017	656.2
926.42	663
926.801	651.4
927.204	654.8
927.607	662.4
928.01	670
928.413	654
928.795	643.2
929.199	648.6
929.602	640.2
930.006	641.2
930.388	654.4
930.792	657.6
931.196	648
931.579	689.2
931.983	647.2
932.388	699.2
932.771	646
933.176	646.4
933.58	648
933.964	654.2
934.369	640.8
934.774	659.4
935.158	643.4
935.563	652.8
935.947	652.8
936.353	659.4
936.759	648.2
937.143	661.6
937.549	651.2
937.934	662.6
938.34	677
938.746	651.4
939.131	650.2
939.538	644.6
939.923	648.6
940.33	641.4
940.716	648.4
941.123	652.4
941.508	656
941.916	677.4
942.302	654.8
942.709	643.8
943.096	646.6
943.503	659.6
943.89	647.4
944.298	646
944.685	688
945.072	646.6
945.48	664.2
945.867	640
946.276	648.6
946.663	678.6
947.051	667.2
947.46	655.6
947.848	661.4
948.257	644.4
948.645	650.4
949.033	646.6
949.443	634
949.831	702
950.22	636.4
950.63	665.6
951.018	688.4
951.407	639.6
951.796	646.6
952.207	661.6
952.596	658.4
952.985	636.8
953.375	702.2
953.786	655.4
954.176	646.2
954.566	654
954.956	639.4
955.367	646
955.758	678.4
956.148	633.8
956.539	668
956.929	637.4
957.341	647.2
957.732	642
958.123	662.6
958.515	648.2
958.906	656.4
959.297	648.4
959.689	651.4
960.102	651
960.494	649.4
960.886	642.6
961.278	647
961.67	675.8
962.062	689
962.455	642
962.847	640.4
963.24	637.8
963.633	655.2
964.026	629.2
964.419	644.8
964.812	657.8
965.206	646.2
965.599	661.4
965.993	653.6
966.386	661
966.78	663.6
967.174	660.6
967.569	648.8
967.963	647.8
968.357	641.6
968.752	644.2
969.146	643.4
969.541	650.2
969.936	650.4
970.331	656
970.705	652.6
971.1	645.4
971.496	654.6
971.892	645.8
972.287	648.2
972.683	651
973.079	650
973.454	670
973.85	654
974.247	658.8
974.643	668.4
975.04	648.6
975.415	652.4
975.812	645.2
976.209	656
976.607	635
976.982	666.4
977.38	671.6
977.778	652.2
978.175	648.2
978.552	653.2
978.95	652
979.348	661.2
979.725	703.2
980.123	649.6
980.522	652.6
980.899	647.6
981.298	649
981.697	650.4
982.075	649.2
982.474	653
982.852	650.8
983.251	654.8
983.651	643
984.029	651.6
984.429	647.6
984.808	639
985.208	650.8
985.609	632.6
985.987	636
986.388	652.8
986.768	668
987.168	635.2
987.548	653
987.949	656.8
988.329	657.2
988.731	632.2
989.111	650.4
989.491	637.8
989.893	646.6
990.273	656
990.676	645.8
991.057	641
991.459	639.8
991.84	647.2
992.221	639.8
992.624	669
993.006	655.4
993.388	651.8
993.791	652.4
994.173	652.8
994.576	687.4
994.959	645.4
995.341	646
995.724	646.2
996.128	654
996.511	653.4
996.894	643.4
997.298	647.8
997.681	650
998.065	646.8
998.448	650.8
998.854	658.2
999.237	642.2
999.621	660.2
1000.01	664.2
1000.39	652.2
1000.8	653.6
1001.18	659
1001.56	658.6
1001.95	656.6
1002.33	657
1002.72	653.4
1003.13	649.6
1003.51	655.2
1003.9	644.2
1004.28	666.8
1004.67	650.4
1005.06	650.6
1005.44	681.8
1005.83	642.2
1006.21	648.4
1006.6	651.6
1006.99	659.2
1007.37	665.4
1007.76	648.8
1060.12	641.4
1060.51	652
1060.89	655
1061.28	671.2
1061.67	665
1062.06	649.2
1062.45	650.8
1062.83	653
1063.22	656.8
1063.61	698.8
1064	653.6
1064.39	653.4
1064.78	641.6
1065.14	668
1065.53	657.8
1065.92	648.2
1066.31	649.2
1066.7	659.6
1067.09	666.8
1067.46	666
1067.85	651
1068.24	651.6
1068.63	647.2
1069.02	643.4
1069.39	657.8
1069.78	651.6
1070.17	638.2
1070.57	642.2
1070.93	664.4
1071.33	650.8
1071.72	662
1072.11	640.8
1072.48	650.4
1072.87	648.6
1073.26	647.6
1073.64	649.6
1074.03	647.2
1074.4	649.2
1074.79	649.6
1075.19	649.6
1075.56	649
1075.95	653.4
1076.34	655.2
1076.72	658.8
1077.11	660.8
1077.48	664.2
1077.88	654.8
1078.25	648
1078.64	655.2
1079.02	644.4
1079.41	657.2
1079.78	647.4
1080.18	639.2
1080.55	719.2
1080.95	640.4
1081.32	637.6
1081.72	655
1082.09	647.8
1082.49	640.6
1082.86	649.2
1083.24	634.4
1083.63	633
1084.01	646.2
1084.38	658.2
1084.78	643.6
1085.16	653.8
1085.55	665.6
1085.93	661
1086.31	643.6
1086.7	681.8
1087.08	649
1087.46	657.2
1087.83	638.4
1088.23	654
1088.61	641.8
1088.99	658.4
1089.36	654.2
1089.76	647.8
1090.14	639.8
1090.52	646.8
1090.9	648.8
1091.27	653
1091.67	680.4
1092.05	648
1092.43	649.2
1092.81	656
1093.19	655.6
1093.57	636.2
1093.95	645.6
1094.35	660.4
1094.73	658.8
1095.11	643.2
1095.49	639.6
1095.87	634
1096.25	666.2
1096.63	654.4
1097.01	638.6
1097.39	654
1097.77	646.6
1098.15	649.4
1098.53	635.2
1098.91	643.2
1099.29	642
1099.68	666
1100.06	658.2
1100.44	640.2
1100.82	654.2
1101.18	653
1101.56	640.2
1101.95	646.8
1102.33	644.2
1102.71	647.8
1103.1	644
1103.48	634.8
1103.86	642.4
1104.22	656.2
1104.61	645.6
1104.99	636.2
1105.38	635.8
1105.76	652.2
1106.12	642.8
1106.51	683.6
1106.89	655.8
1107.26	653.2
1107.64	665.8
1108.03	645.4
1108.41	641
1108.78	651
1109.16	652
1109.55	654.4
1109.91	635.6
1110.3	634.8
1110.69	660.4
1111.05	650
1111.44	646.8
1111.8	648
1112.19	655.4
1112.58	645.8
1112.94	646.8
1113.33	646
1113.7	646.4
1114.09	638.8
1114.45	640.2
1114.84	646.8
1115.21	654
1115.6	643.6
1115.96	653.6
1116.35	655.4
1116.72	652.6
1117.11	653.6
1117.48	645.2
1117.85	646.6
1118.24	657.4
1118.6	658
1118.99	642.6
1119.36	655
1119.73	652.6
1120.12	646.4
1120.49	633.2
1120.86	652
1121.25	644.4
1121.62	634.2
1121.99	642.8
1122.38	659
1122.76	654.2
1123.13	639.6
1123.5	646.4
1123.89	662.4
1124.26	633.4
1124.63	643
1125	649.4
1125.4	638.6
1125.77	635.2
1126.14	637.8
1126.51	639.8
1126.88	653.2
1127.26	634.6
1127.63	621
1128.02	638.8
1128.4	639
1128.77	643.4
1129.14	649.6
1129.52	652.8
1129.89	657.2
1130.26	637.4
1130.64	637
1131.01	645.2
