#lambda/nm	C1
208.295	546.8
208.67	493.8
209.045	455.2
209.419	455.4
209.794	692.6
210.169	672.2
210.544	807.8
210.919	696.4
211.295	676.2
211.67	702
212.045	684
212.421	688
212.796	737.4
213.172	686.6
213.547	687.8
213.923	682.2
214.299	682.2
214.675	701
215.051	698.6
215.427	700.4
215.803	703
216.179	701.4
216.555	677
216.932	700.8
217.308	698.2
217.684	694.4
218.061	685.4
218.438	694
218.814	680.6
219.191	692.2
219.568	687.6
219.945	683
220.322	700.8
220.699	695.8
221.076	701
221.453	698
221.83	696
222.208	688.6
222.585	678.6
222.962	696.6
223.34	698.4
223.717	694.6
224.095	694.4
224.473	695.2
224.851	686.8
225.229	676
225.607	714.6
225.985	687.4
226.363	690.2
226.741	695.4
227.119	685.6
227.497	702.8
227.876	675.8
228.254	693
228.633	692.2
229.011	692.4
229.39	691.2
229.769	691.6
230.148	700.2
230.527	719.4
230.905	690.6
231.284	693
231.664	681
232.043	714.2
232.422	701.8
232.801	677.4
233.181	694.6
233.56	692.6
233.94	691.6
234.319	683.6
234.699	693.8
235.079	736.4
235.458	738.6
235.838	703.8
236.218	677.4
236.598	673.6
236.978	674.6
237.358	674
237.738	684.6
238.119	694
238.499	683
238.88	692.8
239.26	713.2
239.641	676.2
240.021	679.2
240.402	690.8
240.783	689.2
241.163	691.8
241.544	696
241.925	689.6
242.306	714.8
242.687	682.4
243.069	697.6
243.45	692.4
243.831	692.8
244.212	694.8
244.594	732.4
244.975	703.4
245.357	689.4
245.739	683.2
246.12	692.6
246.502	700.4
246.884	688.2
247.266	688.8
247.648	692
248.03	715.2
248.412	693.6
248.794	698.8
249.176	689.8
249.559	714.4
249.941	679.2
250.323	685.8
250.706	681.2
251.089	703.8
251.471	684.6
251.854	693.8
252.237	687
252.62	697
253.002	690.6
253.385	694.8
253.769	713.6
254.152	690.4
254.535	693.6
254.918	687.4
255.301	688.8
255.685	685.6
256.068	683.4
256.452	719.8
256.835	703.6
257.219	702
257.603	706
257.986	682.6
258.37	701.8
258.754	681.4
259.138	701
259.522	706
259.906	680
260.29	694.4
260.675	683
261.059	691.8
261.443	687.2
261.828	701.6
262.212	692.8
262.597	673
262.981	689
263.366	712
263.751	686.6
264.136	680.6
264.521	686
264.906	681
265.291	703.4
265.676	684.2
266.061	693.6
266.446	715.4
266.831	696.4
267.217	712.6
267.602	698.8
267.987	693.6
268.373	682.8
268.759	696.4
269.144	689.8
269.53	690
269.916	689.6
270.302	680
270.688	695.2
271.074	695.4
271.46	708.4
271.846	728
272.232	693.2
272.618	686.6
273.004	680.6
273.391	705.6
273.777	697.8
274.164	699.4
274.55	704.6
274.937	682
275.324	686.6
275.71	695
276.097	691.8
276.484	685
276.871	687.8
277.258	689.8
277.645	673.4
278.032	681.4
278.419	695.2
278.807	705.2
279.194	678.4
279.581	688.8
279.969	696.6
280.356	678.2
280.744	698.2
281.131	722.6
281.519	696.6
281.907	687.4
282.295	688
282.682	706.6
283.07	693
283.458	697.6
283.846	705.8
284.235	709
284.623	700.6
285.011	682.4
285.399	694.8
285.788	691.8
286.176	673.6
286.565	708.2
286.953	690.2
287.342	684.8
287.731	690
288.119	685.8
288.508	688.6
288.897	688
289.286	683.4
289.675	689.4
290.064	704.4
290.453	693.4
290.821	693.4
291.21	705
291.599	689.2
291.989	689.4
292.378	704.6
292.768	715.8
293.157	695
293.547	704.6
293.936	686.2
294.326	690.6
294.716	698
295.106	675.8
295.496	701
295.886	714.4
296.276	690
296.666	690.4
297.056	689.4
297.446	683.2
297.836	717
298.227	690.2
298.617	698.6
299.008	716.8
299.398	689
299.789	689.6
300.179	695.6
300.57	709
300.961	690
301.352	692
301.742	704.2
302.133	698.2
302.524	694.2
302.915	692
303.307	680.6
303.698	698
304.089	697.8
304.48	685.4
304.872	704
305.263	689.6
305.655	680.6
306.046	700.6
306.438	697
306.829	694.4
307.221	707.8
307.613	692.8
308.005	705.8
308.397	711.2
308.789	715.2
309.181	722.4
309.573	722.4
309.965	713.2
310.357	693.8
310.749	706.4
311.142	682.4
311.534	690.6
311.926	702.4
312.319	696.6
312.711	675
313.104	715
313.497	699.2
313.889	736
314.282	727.8
314.675	728.6
315.068	699.2
315.461	713.4
315.854	724
316.247	701.6
316.64	697.8
317.033	704.2
317.405	708.2
317.798	696.8
318.192	708.6
318.585	682.4
318.979	701.6
319.372	689
319.766	692
320.16	700.2
320.553	714.4
320.947	709.4
321.341	685.6
321.735	689.4
322.129	673.6
322.523	717
322.917	681.8
323.311	707
323.705	696.6
324.099	700.4
324.494	713
324.888	706
325.282	691
325.677	711.4
326.071	704.4
326.466	709.2
326.861	701.6
327.255	713
327.65	718
328.045	715.4
328.44	698.4
328.835	693.8
329.23	686
329.625	723.8
330.02	690.8
330.415	724.4
330.81	708.2
331.206	688.2
331.601	684.8
331.996	717.6
332.37	725.8
332.766	677.2
333.161	723.4
333.557	693
333.953	692
334.348	1075.8
334.744	689.6
335.14	688.2
335.536	691
335.932	708.6
336.328	694.8
336.724	707.8
337.12	698.4
337.516	706.2
337.913	690.6
338.309	701.2
338.705	693.2
339.102	702.8
339.498	692.4
339.895	707
340.291	682.4
340.688	691
341.085	683
341.481	690.8
341.878	694.8
342.275	716.4
342.672	689.4
343.069	691.8
343.466	681
343.842	702.8
344.239	689
344.636	691.2
345.033	690.4
345.431	688.2
345.828	689.4
346.225	691.4
346.623	735.8
347.02	698.8
347.418	698.4
347.816	717
348.213	680
348.611	701.4
349.009	688.8
349.407	704.4
349.805	688.8
350.203	677.2
350.601	702.8
350.999	686.8
351.397	759
351.795	696
352.193	702
352.57	699.6
352.969	710.8
353.367	684.2
353.766	675.8
354.164	688.4
354.563	710.8
354.961	688
355.36	679.4
355.759	688.2
356.158	680.8
356.557	684.6
356.956	682
357.355	679.2
357.754	707.8
358.153	692.8
358.552	725
358.951	688.6
359.35	695.4
359.75	682.4
360.149	679.8
360.527	672.6
360.926	682.6
361.326	693.6
361.726	693.4
362.125	686
362.525	692
362.925	688.6
363.325	687.2
363.724	697
364.124	689
364.524	688.2
364.924	681.4
365.324	699.4
365.725	674.2
366.125	693.4
366.525	683.4
366.904	680.2
367.304	668
367.705	703.4
368.105	699.8
368.506	685.8
368.906	695.2
369.307	690
369.708	691.8
370.108	674.6
370.509	697
370.91	678.4
371.311	685.8
371.712	687
372.113	686.2
372.514	669.4
372.894	695.2
373.295	675.8
373.696	690.6
374.097	692.4
374.499	719.6
374.9	693
375.301	667.8
375.703	690.2
376.105	673
376.506	692
376.908	690.6
377.309	685.8
377.711	692.2
378.113	678
378.493	695
378.895	680.4
379.297	692.6
379.699	675.6
380.102	687
380.504	680.6
380.906	679.4
381.308	709.4
381.71	675.6
382.113	690.4
382.515	685
382.918	687.4
383.299	680.8
383.701	699.4
384.104	684
384.507	664.4
384.909	677.2
385.312	672.6
385.715	668
386.118	678.2
386.521	672.6
386.924	693.2
387.327	684.2
387.709	670
388.112	675
388.515	676
388.918	677.2
389.322	692.8
389.725	695.6
390.129	717
390.532	694.8
390.936	683.4
391.339	679.2
391.743	685
392.125	674.6
392.529	690.4
392.933	700.8
393.337	679.2
393.74	683.2
394.144	693.2
394.548	684.4
394.953	679
395.357	694.2
395.761	684.8
396.144	686.2
396.548	691.6
396.952	688
397.357	681.2
397.761	684.2
398.166	674.6
398.57	685.6
398.975	673.2
399.379	679.4
399.763	737.8
400.168	677.6
400.572	682.8
400.977	684.4
401.382	704.4
401.787	700.4
402.192	711.4
402.597	706
403.002	661.2
403.386	703.2
403.791	707.8
404.197	686.4
404.602	695.4
405.007	695.2
405.413	678.2
405.818	692.2
406.224	688.2
406.608	678
407.014	676
407.42	701.6
407.825	673.8
408.231	696.6
408.637	693
409.043	701.8
409.449	670.2
409.834	673.6
410.24	687.8
410.646	703
411.052	699
411.458	697.2
411.865	704.8
412.271	698.2
412.677	683.4
413.062	694.6
413.469	672.8
413.875	716.2
414.282	697.4
414.689	697
415.095	691
415.502	681.6
415.888	693.6
416.294	674.2
416.701	730.6
417.108	682.8
417.515	691.2
417.923	688.4
418.33	711.2
418.715	704
419.123	684
419.53	687.6
419.937	687.2
420.345	709.8
420.752	684.8
421.16	711.4
421.546	687.8
421.953	690.4
422.361	677.8
422.769	688.4
423.177	677
423.585	723.6
423.992	717.4
424.379	705.2
424.787	702.6
425.195	721.4
425.603	696
426.011	699.6
426.419	700.4
426.806	690.8
427.214	699.4
427.623	705.6
428.031	705.8
428.44	691
428.848	710.4
429.235	709
429.644	695.6
430.053	695.2
430.461	703
430.87	724.4
431.279	712.6
431.666	679.2
432.075	695.4
432.484	696.2
432.893	689.8
433.302	710.2
433.711	768
434.099	694
434.508	683.4
434.918	677.8
435.327	700.4
435.737	692.6
436.125	687.6
436.534	695.6
436.944	696.4
437.353	701
437.763	718.2
438.173	680.4
438.561	707
438.971	666.6
439.381	678.6
439.791	691
440.201	667.8
440.589	685
440.999	692.2
441.409	688.6
441.819	671.6
442.23	708.2
442.619	694.8
443.029	688.8
443.439	687.2
443.85	705.6
444.26	694.2
444.649	696.4
445.06	687.6
445.471	686.4
445.881	691.6
446.292	700.4
446.682	720
447.092	678.8
447.503	747.6
447.914	702.6
448.325	692.4
448.715	687.4
449.126	684
449.537	695.2
449.948	686
450.338	692.6
450.75	702.4
451.161	700.4
451.572	698.8
451.984	684
452.374	667.8
452.786	689.2
453.197	695.6
453.609	704.6
453.999	680
454.411	678
454.823	698.4
455.235	691
455.647	684.8
456.037	697.8
456.449	667.8
456.862	695.8
457.274	697.2
457.665	679.4
458.077	692.2
458.489	727.6
458.902	686.2
459.293	689.8
459.705	699.6
460.118	680
460.53	699
460.921	677.6
461.334	687.8
461.747	693.4
462.16	703.2
462.551	709
462.964	691.8
463.377	677.2
463.79	683.2
464.182	702.4
464.595	681.4
465.008	704.6
465.421	691.6
465.813	686.4
466.226	701.4
466.64	686
467.053	739.8
467.445	700.8
467.859	710.6
468.272	686.2
468.686	704
469.078	689
469.492	674
469.906	686.4
470.298	693
470.712	675.4
471.126	749
471.54	672.6
471.933	679.2
472.347	686.2
472.761	676.6
473.175	671.2
473.568	674.4
473.982	670.6
474.397	694.6
474.79	684.8
475.204	689
475.619	691.2
476.033	685.2
476.426	685.8
476.841	688
477.256	709.6
477.649	688.4
478.064	684.6
478.479	667.8
478.872	676.2
479.287	658.8
479.702	675.8
480.118	678.8
480.511	683.4
480.927	682.2
481.342	676.4
481.736	688
482.151	674.6
482.566	688.4
482.96	687.4
483.376	690
483.792	669.4
484.186	680.2
484.602	670.8
485.017	677
485.412	677.4
485.827	685.6
486.243	682.6
486.638	711.8
487.054	687.4
487.47	704.2
487.865	676.4
488.281	674.2
488.697	674.8
489.092	671.4
489.508	675
489.925	695.6
490.32	677.4
490.736	692.4
491.153	682
491.548	687.4
491.964	701.2
492.381	673.4
492.776	688.6
493.193	691.6
493.61	688.6
494.006	682.2
494.422	690.8
494.84	670.6
495.235	703.2
495.652	680.8
496.069	688.4
496.465	672.4
496.883	685.4
497.3	704
497.696	672.8
498.113	685.2
498.509	672
498.927	674.2
499.344	674.6
499.741	669.4
500.158	689
500.576	694
500.973	683.6
501.39	666.2
501.787	667.6
502.205	683.8
502.623	684.8
503.02	669.6
503.438	679
503.856	675
504.253	684.4
504.671	678
505.068	678.2
505.486	671.8
505.905	699.4
506.302	683
506.72	689.8
507.118	673
507.536	678.2
507.955	673.6
508.352	677.8
508.771	676.8
509.169	675.6
509.587	672.8
510.006	681.8
510.404	669.4
510.823	670.4
511.221	674.4
511.64	675
512.038	683.6
512.457	678.6
512.877	690.8
513.275	673.2
513.694	671.2
514.092	661.4
514.512	686.8
514.91	678.8
515.33	685
515.749	682.6
516.148	678.4
516.568	688.8
516.966	677
517.386	675.4
517.785	674.2
518.205	674.6
518.603	674.6
519.024	668
519.444	686.2
519.843	685.2
520.263	694.2
520.662	685.4
521.082	677.8
521.481	681.8
521.902	684
522.301	674.8
522.722	678.8
523.121	670.6
523.542	676.2
523.963	679.6
524.362	690.2
524.783	682.2
525.183	673.4
525.604	685.8
526.003	664
526.425	666
526.824	676.2
527.246	687.6
527.646	687.2
528.067	680.4
528.467	682.6
528.888	679.6
529.289	672.8
529.71	681.4
530.11	672.4
530.532	673.4
530.932	673.8
531.354	667.2
531.755	720.4
532.176	680.8
532.577	674.4
532.999	675.4
533.4	675.4
533.822	692.6
534.223	685.4
534.645	668.8
535.046	682.8
535.468	675.8
535.869	691.2
536.292	668.2
536.693	705.6
537.115	675.6
537.516	660.8
537.939	680
538.34	687.2
538.742	692.8
539.165	674.6
539.566	674
539.989	662
540.391	670
540.814	677.6
541.216	678.6
541.639	686
542.041	688.6
542.464	664
542.866	664.8
543.268	666.8
543.691	675
544.093	680.8
544.517	696.2
544.919	657.8
545.343	697.2
545.745	656.8
546.147	678.8
546.571	674.2
546.974	663.2
547.398	671.2
547.8	679.4
548.224	666
548.627	659.8
549.03	673.8
549.454	662.8
549.857	654.4
550.281	657.6
550.684	661.8
551.087	679.8
551.512	669.6
551.915	677.8
552.34	668.6
552.743	672.6
553.146	672.2
553.571	677.4
553.975	694.8
554.399	665.8
554.803	730.2
555.207	666.4
555.632	656.6
556.036	675.8
556.461	673.4
556.865	672.2
557.268	661.8
557.694	678.2
558.098	687.4
558.502	679.2
558.927	674.2
559.332	679
559.736	668.4
560.162	680.6
560.566	673
560.992	684.4
561.396	675.4
561.801	669.2
562.227	675.6
562.631	669.6
563.036	665.8
563.462	687.2
563.867	675.6
564.272	654.8
564.698	673.8
565.103	668.6
565.508	692.6
565.935	671.6
566.34	672.6
566.745	682.8
567.172	665.2
567.577	694.4
567.982	691.6
568.409	679
568.815	659.6
569.22	675
569.626	677
570.053	663.2
570.459	674.2
570.865	675.4
571.292	672
571.698	677.2
572.104	657.6
572.531	661
572.937	681.8
573.343	674.4
573.75	667.8
574.177	673.2
574.583	673.2
574.99	664.6
575.396	676.2
575.824	666.8
576.231	675.6
576.637	667.4
577.065	701.8
577.472	658.8
577.879	665.2
578.286	682.4
578.714	655.4
579.121	667.2
579.528	676.8
579.935	681.6
580.364	669
580.771	652.4
581.178	655.8
581.585	672.8
582.014	679.2
582.421	656.6
582.829	669.4
583.236	687
583.644	670
584.073	670.2
584.481	677.4
584.889	653.2
585.296	673.8
585.726	667.6
586.134	660
586.542	662.4
586.95	686.8
587.358	657.4
587.787	668
588.196	657.8
588.604	657.8
589.012	666
589.421	658.8
589.851	657.2
590.259	665.4
590.668	663.8
591.076	708.2
591.485	661.6
591.894	666.8
592.324	685.8
592.733	686.4
593.142	650.6
593.551	672.4
593.96	713
594.369	661.6
594.8	656
595.209	680
595.618	651.8
596.028	667.2
596.437	657.6
596.847	668.6
597.256	672.4
597.687	668.2
598.097	672.4
598.507	660.4
598.917	665.8
599.327	674
599.736	672.4
600.146	686.6
600.556	672.2
600.988	682
601.398	664
601.808	668.2
602.219	663.2
602.629	675.6
603.039	669.4
603.45	701.8
603.86	674.2
604.271	692.2
604.703	669
605.114	674.6
605.525	669.6
605.935	673.8
606.346	686.4
606.757	674
607.168	675.6
607.579	658.6
607.99	685.4
608.402	675.8
608.813	672
609.224	673.8
609.636	664
610.047	662
610.48	669.4
610.892	683.4
611.303	676.6
611.715	675
612.127	666.4
612.539	671
612.95	668.2
613.362	657.6
613.774	662
614.186	658.6
614.599	670.6
615.011	676.4
615.423	663.8
615.835	664.4
616.248	657.8
616.66	674.4
617.073	650
617.485	673
617.898	670.6
618.311	673.4
618.723	666
619.136	702.4
619.549	695.6
619.962	697
620.375	663.2
620.788	669.8
621.201	664.4
621.614	686
622.028	675.2
622.441	674.2
622.854	679
623.268	653.4
623.681	671
624.095	669.4
624.509	673.4
624.922	671.2
625.336	646
625.728	669.8
626.142	682.4
626.556	691.6
626.97	671
627.384	670.6
627.799	666.8
628.213	678.4
628.627	665.6
629.041	665.6
629.456	661.8
629.87	675
630.285	682.2
630.699	682.4
631.093	664.6
631.507	672
631.922	673.6
632.337	687
632.752	654.4
633.167	667.8
633.582	667.4
633.997	665
634.412	667.2
634.806	673
635.221	658.6
635.637	681.2
636.052	655.2
636.468	666
636.883	686
637.299	660
637.715	658.6
638.109	671.8
638.525	657.8
638.941	681.4
639.357	668.8
639.773	681.8
640.189	668
640.584	666.6
641	670
641.416	653.6
641.832	661.6
642.249	665.6
642.665	668.8
643.06	671
643.477	671.4
643.894	643.6
644.31	673.6
644.727	670.2
645.123	670.4
645.54	661
645.957	670.4
646.374	678.6
646.77	668
647.187	696.6
647.604	662.4
648.021	642.2
648.439	654.8
648.835	664.8
649.252	668.4
649.67	653.8
650.088	655.4
650.484	668.4
650.902	674.4
651.32	673.8
651.738	664.8
652.134	668
652.552	688
652.971	664.6
653.389	661.2
653.786	690.8
654.204	682.2
654.622	659.6
655.019	671.6
655.438	665.8
655.857	660.6
656.275	667
656.673	654.2
657.091	746.4
657.51	660.6
657.908	679.2
658.327	680
658.746	654.4
659.144	669
659.563	680
659.982	675
660.38	651.4
660.8	665.6
661.219	675.8
661.617	675.6
662.037	676.8
662.457	688.2
662.855	652.8
663.275	697
663.695	666.6
664.094	657.2
664.514	664.6
664.934	660.4
665.333	681
665.753	665.2
666.152	665.2
666.572	664.6
666.993	679.8
667.392	660
667.812	660
668.212	667.4
668.632	681
669.053	667.4
669.453	669.6
669.874	675
670.273	673
670.694	654.8
671.116	684.4
671.515	671.2
671.937	666
672.337	668.4
672.758	665.6
673.158	677.4
673.58	659.6
673.98	669.8
674.402	677.8
674.824	665.2
675.224	655.6
675.646	653.8
676.047	662
676.469	667.2
676.869	671.2
677.292	667
677.693	663.4
678.115	660.2
678.516	670.8
678.939	670
679.34	664
679.762	675
680.164	669.2
680.586	653
680.988	659.6
681.411	697.2
681.812	661
682.236	665.4
682.637	662
683.061	656.8
683.462	674
683.864	662.2
684.288	668.8
684.69	648.8
685.114	683.4
685.516	679
685.94	659.2
686.342	675.4
686.766	654.4
687.168	664.8
687.571	682.6
687.995	668.6
688.398	649
688.822	653
689.225	682.6
689.628	689.4
690.052	658
690.456	669.4
690.88	666.6
691.284	654.6
691.687	672.2
692.112	645.8
692.515	657
692.919	661.6
693.344	669.6
693.747	661.6
694.173	654.4
694.577	686.4
694.98	657.2
695.406	666.6
695.81	672.4
696.214	665
696.64	664.2
697.044	665.2
697.448	671.2
697.874	671.2
698.279	665.6
698.684	656.6
699.11	653.4
699.514	666.6
699.919	661.8
700.324	654.8
700.75	670.2
701.156	665.4
701.561	676.4
701.987	670.4
702.393	673.4
702.798	677.6
703.203	669.4
703.63	666.4
704.036	663.4
704.442	668.6
704.847	650.4
705.274	659.4
705.68	670.8
706.086	670
706.492	655.4
706.92	656.4
707.326	676.6
707.732	667.8
708.139	651.8
708.545	647.4
708.973	661.2
709.38	669.8
709.786	651.2
710.193	678.4
710.6	670.6
711.028	664
711.435	662.8
711.842	661.4
712.249	656.4
712.656	658.8
713.064	675.6
713.492	648
713.9	661.4
714.307	666.8
714.715	667.2
715.123	664.8
715.53	671.6
715.938	674.8
716.367	675.6
716.775	658.6
717.184	646.4
717.592	664
718	675.4
718.408	699.4
718.816	718.6
719.225	671.2
719.633	665.4
720.042	645.8
720.472	662.2
720.881	682.8
721.29	667
721.699	649.4
722.108	666.8
722.517	663.6
722.926	662.8
723.335	679.4
723.744	669.2
724.154	667.8
724.563	667.2
724.973	670.4
725.382	667.2
725.792	661.6
726.202	656.8
726.612	685.4
727.022	665.4
727.432	669.8
779.813	662
780.223	714.8
780.634	667.2
781.044	654.8
781.454	666.2
781.865	675.6
782.276	650.4
782.686	674
783.097	665
783.508	664.4
783.919	664.2
784.33	667.4
784.741	671.2
785.152	650
785.563	641.2
785.974	664
786.386	679.4
786.776	667.2
787.188	662.4
787.599	649.8
788.011	666.8
788.423	664.6
788.835	661.8
789.247	658.4
789.659	664.2
790.071	669.6
790.483	707.6
790.874	660.4
791.286	678.4
791.699	653.4
792.111	665.2
792.524	670.4
792.937	664.2
793.349	665
793.741	654.4
794.154	657.6
794.567	684.8
794.98	663.8
795.393	653
795.785	676.4
796.198	652.8
796.612	663
797.026	659.8
797.439	641.8
797.831	661
798.245	656.6
798.659	661
799.073	654.6
799.487	654.2
799.88	667.2
800.294	664.4
800.708	665
801.123	666.4
801.516	680.4
801.93	639.6
802.345	639.2
802.76	662.4
803.153	674.6
803.568	677.4
803.983	673
804.377	667.2
804.792	647.4
805.207	636.4
805.601	658
806.016	698.2
806.432	652.8
806.826	696.4
807.242	682.6
807.658	661.2
808.052	653.2
808.468	648
808.884	653.4
809.279	659.4
809.695	667.6
810.111	688
810.506	662.2
810.922	683.6
811.339	659.8
811.734	665
812.151	655.2
812.546	657.6
812.963	650.4
813.38	671.4
813.776	661.8
814.193	688.6
814.589	654.4
815.006	657.8
815.402	649.8
815.82	660.2
816.237	658.2
816.633	663.2
817.051	649
817.448	659.8
817.866	655
818.262	683.8
818.68	653
819.077	663
819.495	656.8
819.892	708
820.311	653.6
820.708	660
821.127	648
821.524	668.8
821.943	670
822.34	678.4
822.759	670.6
823.157	671
823.576	676.8
823.974	667.4
824.393	791.6
824.791	661
825.189	649
825.609	656.8
826.007	672.6
826.427	653
826.826	658.6
827.246	666
827.644	643.8
828.043	673.4
828.463	650.2
828.862	671.4
829.261	666.2
829.682	651.2
830.081	668.8
830.502	654.2
830.901	661.2
831.301	646
831.722	649
832.121	663.2
832.521	652.2
832.943	654.8
833.342	661.6
833.742	649.4
834.164	663.4
834.564	647.2
834.965	661.4
835.386	658.4
835.787	657.6
836.188	664.2
836.588	661.4
837.01	658.8
837.411	648
837.812	667.6
838.213	665
838.636	659.2
839.037	738.4
839.438	657.4
839.84	664.4
840.263	659.8
840.664	662.2
841.066	653.2
841.468	655.8
841.891	654.4
842.293	669.2
842.695	660.4
843.098	668.8
843.5	656.4
843.902	661
844.326	669.8
844.729	663.2
845.131	674.4
845.534	664
845.937	676.4
846.34	682.4
846.764	658.4
847.167	661.4
847.571	652.4
847.974	648.8
848.377	649
848.781	714.2
849.184	675.8
849.588	654.6
849.992	655
850.396	674
850.821	677.2
851.225	656.6
851.63	660
852.034	663.8
852.438	656.4
852.843	793
853.247	649.8
853.652	645
854.057	672.6
854.462	662.6
854.867	665.4
855.272	693
855.677	661.4
856.082	656.2
856.487	642
856.893	672
857.298	659.6
857.704	651.2
858.11	659.2
858.516	668.4
858.922	657.8
859.328	669.8
859.734	656.4
860.14	661.6
860.525	661.6
860.931	651.2
861.338	664.6
861.745	663.4
862.151	668.2
862.558	664.6
862.965	651.8
863.372	662.2
863.779	650.6
864.186	686.8
864.572	659.8
864.98	682.2
865.387	699
865.795	659
866.203	668
866.61	649.2
867.018	677
867.405	671
867.813	662.4
868.221	658.4
868.63	656.8
869.038	659.2
869.425	719.4
869.834	666.4
870.243	647
870.652	646.4
871.039	648.4
871.448	652
871.857	663.4
872.266	661.2
872.654	664.2
873.064	647
873.473	672.8
873.883	654
874.271	646.6
874.681	669.6
875.091	644.8
875.48	665
875.89	681.8
876.3	648.2
876.689	639.8
877.1	655.8
877.51	665.8
877.9	677.2
878.31	657.4
878.721	696
879.111	658.6
879.522	663.6
879.933	651.4
880.323	642.6
880.734	656.4
881.125	661.8
881.536	657.2
881.948	649.4
882.338	655.2
882.75	668
883.141	657.8
883.553	658.4
883.944	691.2
884.356	663.8
884.769	665.6
885.16	661.2
885.573	660.6
885.964	648.6
886.377	665
886.768	651.2
887.181	654.4
887.573	652.6
887.987	673.8
888.378	675.2
888.792	670.4
889.184	714
889.598	650
889.99	655.4
890.383	651.6
890.797	642.4
891.19	672.4
891.604	651.4
891.997	650
892.411	646.2
892.805	657.6
893.198	662.2
893.613	648
894.006	665.8
894.421	651
894.815	657.2
895.209	653.2
895.624	707.4
896.018	683.2
896.412	647.2
896.828	657
897.222	666.2
897.617	649.6
898.033	676
898.427	662.8
898.822	649.4
899.239	650.4
899.634	654.8
900.029	674.6
900.424	650.2
900.841	651
901.236	668.6
901.632	663
902.027	721.6
902.445	658.8
902.841	655.6
903.237	655.6
903.633	666
904.05	660.8
904.447	659.6
904.843	668.4
905.24	655
905.636	640.2
906.033	656.4
906.451	666.4
906.848	648.4
907.246	650
907.643	650.8
908.04	660.4
908.438	673.4
908.835	661.8
909.254	648.8
909.652	650.2
910.05	653.4
910.448	648
910.846	656.2
911.244	639.8
911.643	662.8
912.041	653.6
912.44	675
912.839	644
913.237	653.4
913.636	647
914.035	663.8
914.434	650
914.834	675.2
915.233	669.6
915.633	650
916.032	646
916.432	652.2
916.832	674
917.232	652.6
917.632	640.2
918.032	666.6
918.432	662
918.833	653.8
919.233	657
919.634	645.2
920.035	666.4
920.436	660
920.837	662.4
921.238	651.6
921.639	657.6
922.019	660
922.42	661.2
922.822	664.2
923.224	651.4
923.625	651
924.027	647
924.429	684
924.81	665.4
925.212	666.6
925.615	661.2
926.017	653.8
926.42	668
926.801	660.8
927.204	658.2
927.607	666
928.01	678.2
928.413	657.4
928.795	646.2
929.199	661
929.602	646.8
930.006	659.2
930.388	644.6
930.792	658.8
931.196	657
931.579	693.4
931.983	639.8
932.388	707.4
932.771	657.2
933.176	633.2
933.58	654.4
933.964	660.6
934.369	649.6
934.774	660.2
935.158	654.4
935.563	655.6
935.947	654.2
936.353	658.4
936.759	656
937.143	652.4
937.549	656.2
937.934	668.6
938.34	677.6
938.746	653.6
939.131	653.6
939.538	655.4
939.923	652.4
940.33	657.6
940.716	661.6
941.123	657.8
941.508	668.6
941.916	675.4
942.302	655.8
942.709	632.8
943.096	643
943.503	651
943.89	646.2
944.298	656.6
944.685	685
945.072	650.6
945.48	659.8
945.867	649
946.276	652.8
946.663	680
947.051	677
947.46	668.2
947.848	657
948.257	649.6
948.645	653.6
949.033	648.8
949.443	649.4
949.831	705
950.22	644.8
950.63	661.2
951.018	683.8
951.407	655
951.796	652.4
952.207	666
952.596	669.4
952.985	645
953.375	703.6
953.786	660.6
954.176	654
954.566	674.4
954.956	641.2
955.367	655.8
955.758	682.2
956.148	650.6
956.539	676.2
956.929	646.6
957.341	644.2
957.732	661.4
958.123	660
958.515	643
958.906	660.8
959.297	659.6
959.689	657.4
960.102	657.2
960.494	664.2
960.886	651
961.278	650.4
961.67	677
962.062	700.2
962.455	660.8
962.847	647.8
963.24	649.2
963.633	648.2
964.026	638.6
964.419	647.2
964.812	662
965.206	654.4
965.599	663
965.993	657.4
966.386	660.8
966.78	665.8
967.174	667.8
967.569	648.2
967.963	647.4
968.357	645.4
968.752	651.2
969.146	645.8
969.541	638
969.936	649
970.331	656.8
970.705	657.6
971.1	653.8
971.496	663.2
971.892	639
972.287	656.2
972.683	649.2
973.079	642.6
973.454	664.4
973.85	649.4
974.247	661.8
974.643	688.4
975.04	661
975.415	666.2
975.812	640.8
976.209	659.4
976.607	642.6
976.982	670.8
977.38	681.2
977.778	654.2
978.175	649
978.552	655.8
978.95	657.4
979.348	666.6
979.725	712.8
980.123	651.6
980.522	645.2
980.899	657.4
981.298	656.8
981.697	650.6
982.075	656.2
982.474	644.6
982.852	653.4
983.251	668
983.651	648.8
984.029	664.8
984.429	663.6
984.808	643
985.208	657.6
985.609	643.2
985.987	638.2
986.388	640.2
986.768	662
987.168	646.6
987.548	656.6
987.949	664.2
988.329	659.2
988.731	638.6
989.111	646.8
989.491	651.8
989.893	650.6
990.273	662.8
990.676	655.2
991.057	645
991.459	653.2
991.84	643.4
992.221	641.2
992.624	674
993.006	666.4
993.388	651.4
993.791	667.4
994.173	670.2
994.576	698.2
994.959	654.2
995.341	653.8
995.724	659.4
996.128	660
996.511	657
996.894	655.2
997.298	651.8
997.681	666.6
998.065	658.6
998.448	651.2
998.854	667
999.237	646
999.621	663.4
1000.01	669.4
1000.39	648.4
1000.8	648.2
1001.18	664.8
1001.56	665.6
1001.95	655
1002.33	657.8
1002.72	644.4
1003.13	659.4
1003.51	645.4
1003.9	653
1004.28	665.8
1004.67	638
1005.06	658
1005.44	691
1005.83	636.4
1006.21	644.6
1006.6	642.6
1006.99	665.2
1007.37	661.4
1007.76	656.8
1060.12	654.2
1060.51	645.8
1060.89	657
1061.28	668
1061.67	662.6
1062.06	650.4
1062.45	662.2
1062.83	654.6
1063.22	669.8
1063.61	695.8
1064	657
1064.39	654.2
1064.78	644.2
1065.14	662.4
1065.53	661.8
1065.92	647.4
1066.31	649.6
1066.7	648
1067.09	670.6
1067.46	661.2
1067.85	650.6
1068.24	650
1068.63	664.4
1069.02	644.8
1069.39	657.4
1069.78	652.2
1070.17	652.4
1070.57	648.4
1070.93	653.8
1071.33	641.2
1071.72	656.2
1072.11	646.6
1072.48	658
1072.87	652.8
1073.26	653.6
1073.64	651.6
1074.03	643
1074.4	647
1074.79	646.8
1075.19	644.4
1075.56	660
1075.95	657.6
1076.34	652.6
1076.72	645
1077.11	652
1077.48	669.4
1077.88	658.4
1078.25	654.4
1078.64	674.6
1079.02	655.6
1079.41	666.2
1079.78	647.2
1080.18	649.8
1080.55	736.4
1080.95	641.4
1081.32	651.8
1081.72	656.6
1082.09	651.8
1082.49	649
1082.86	652.8
1083.24	639.6
1083.63	635
1084.01	646.2
1084.38	656
1084.78	655
1085.16	666.2
1085.55	664
1085.93	665.8
1086.31	636.8
1086.7	686.2
1087.08	653.4
1087.46	649.6
1087.83	642
1088.23	664.4
1088.61	656.4
1088.99	658
1089.36	644.4
1089.76	646.4
1090.14	653
1090.52	651.8
1090.9	648
1091.27	649
1091.67	673.2
1092.05	656.8
1092.43	642.2
1092.81	660.8
1093.19	654.2
1093.57	642
1093.95	639.4
1094.35	668.4
1094.73	663.6
1095.11	650.8
1095.49	648
1095.87	641
1096.25	655.4
1096.63	651.8
1097.01	648.4
1097.39	654.4
1097.77	650.4
1098.15	645
1098.53	634.8
1098.91	650.4
1099.29	651.2
1099.68	671.8
1100.06	658.4
1100.44	652.8
1100.82	662
1101.18	658
1101.56	652.4
1101.95	639
1102.33	657.2
1102.71	649.2
1103.1	649.4
1103.48	639.8
1103.86	647.4
1104.22	650
1104.61	657.2
1104.99	648.8
1105.38	641.2
1105.76	649.8
1106.12	651.8
1106.51	681.4
1106.89	667.6
1107.26	662.4
1107.64	652.6
1108.03	649.2
1108.41	651.6
1108.78	654.6
1109.16	647.6
1109.55	665
1109.91	629.6
1110.3	644
1110.69	670.2
1111.05	645.8
1111.44	654.4
1111.8	655.8
1112.19	655
1112.58	660.6
1112.94	649.8
1113.33	647
1113.7	658
1114.09	646.6
1114.45	642.6
1114.84	652.6
1115.21	668.6
1115.6	639.6
1115.96	658.2
1116.35	656
1116.72	654.8
1117.11	662.8
1117.48	652.6
1117.85	654.8
1118.24	659.6
1118.6	656
1118.99	644.4
1119.36	664.8
1119.73	650.4
1120.12	651.2
1120.49	642.2
1120.86	665.8
1121.25	649.8
1121.62	633.2
1121.99	631.2
1122.38	671
1122.76	650
1123.13	650.6
1123.5	651.8
1123.89	663.2
1124.26	632.4
1124.63	655.4
1125	653.4
1125.4	635.6
1125.77	642
1126.14	628
1126.51	648.8
1126.88	649.2
1127.26	638.2
1127.63	637.2
1128.02	651
1128.4	644.6
1128.77	642
1129.14	643.6
1129.52	655.4
1129.89	661.2
1130.26	636.4
1130.64	640.4
1131.01	649.4
