#lambda/nm	C1
208.295	539
208.67	482
209.045	446.4
209.419	451
209.794	683
210.169	661.2
210.544	794.6
210.919	691.2
211.295	672.4
211.67	684.4
212.045	679.6
212.421	674.8
212.796	717
213.172	680.2
213.547	676
213.923	670.6
214.299	677.8
214.675	682.8
215.051	685.8
215.427	688
215.803	707.2
216.179	680.6
216.555	677.4
216.932	692.8
217.308	683
217.684	682.2
218.061	688
218.438	683.8
218.814	676.8
219.191	690.6
219.568	682
219.945	675.8
220.322	688.8
220.699	682.6
221.076	690.2
221.453	685
221.83	677.4
222.208	683.2
222.585	673.8
222.962	690.6
223.34	683.6
223.717	685.8
224.095	683.4
224.473	681.8
224.851	673.6
225.229	672.6
225.607	697.8
225.985	669.6
226.363	686.6
226.741	684.4
227.119	679.6
227.497	692.2
227.876	672.6
228.254	689.6
228.633	693.4
229.011	681.2
229.39	682.4
229.769	695.8
230.148	683.8
230.527	704.2
230.905	685.8
231.284	688.4
231.664	682
232.043	704.2
232.422	690
232.801	672.8
233.181	696.2
233.56	685.2
233.94	682.4
234.319	673.8
234.699	681.4
235.079	730.6
235.458	719.8
235.838	716
236.218	677.8
236.598	674.6
236.978	678.2
237.358	682.2
237.738	681.4
238.119	692.8
238.499	672.4
238.88	682.8
239.26	699.6
239.641	671
240.021	672.6
240.402	688.6
240.783	682
241.163	689
241.544	683.2
241.925	676.4
242.306	692.8
242.687	682.6
243.069	677.2
243.45	691.8
243.831	681.8
244.212	668.2
244.594	725.8
244.975	695.6
245.357	687.6
245.739	680.4
246.12	693.4
246.502	716.2
246.884	680.8
247.266	685.6
247.648	687.6
248.03	708.2
248.412	690.6
248.794	694.2
249.176	683.6
249.559	698
249.941	675
250.323	668
250.706	680
251.089	681.8
251.471	689.6
251.854	690
252.237	688.8
252.62	692.6
253.002	691.8
253.385	675.8
253.769	710.2
254.152	685
254.535	694.4
254.918	671.2
255.301	679.8
255.685	683.8
256.068	676.8
256.452	701.8
256.835	694.8
257.219	688.8
257.603	697
257.986	672.6
258.37	689.6
258.754	664.6
259.138	690.6
259.522	697.2
259.906	664.8
260.29	691.2
260.675	689.8
261.059	685.6
261.443	672.8
261.828	694.6
262.212	692
262.597	669.8
262.981	674.2
263.366	694.2
263.751	691
264.136	682.4
264.521	681.6
264.906	669.4
265.291	697.6
265.676	674.8
266.061	693
266.446	703.2
266.831	684
267.217	704.8
267.602	679.6
267.987	683.4
268.373	680.6
268.759	698
269.144	692.2
269.53	675
269.916	682.8
270.302	679.4
270.688	690.8
271.074	681.4
271.46	694.4
271.846	722.8
272.232	677
272.618	678.4
273.004	682
273.391	695.2
273.777	696
274.164	690
274.55	697.4
274.937	683.2
275.324	690.6
275.71	690.8
276.097	691.8
276.484	685
276.871	694.6
277.258	695.4
277.645	687
278.032	688.2
278.419	687.6
278.807	691
279.194	672.8
279.581	675.6
279.969	688.4
280.356	685.4
280.744	682.6
281.131	714.6
281.519	683.4
281.907	678.6
282.295	674.4
282.682	699.8
283.07	677.2
283.458	698
283.846	703.6
284.235	691.8
284.623	694
285.011	684.4
285.399	690.8
285.788	683.6
286.176	677
286.565	707
286.953	686.2
287.342	675.2
287.731	682.6
288.119	678.4
288.508	678.2
288.897	685.8
289.286	658.4
289.675	688
290.064	691.2
290.453	680.2
290.821	679.6
291.21	703.8
291.599	678.8
291.989	692.2
292.378	699.2
292.768	703.2
293.157	690.6
293.547	697
293.936	682.2
294.326	681.2
294.716	688.6
295.106	687.6
295.496	692.2
295.886	694.4
296.276	688.8
296.666	677.8
297.056	681.2
297.446	669.6
297.836	700.8
298.227	687
298.617	686.6
299.008	701
299.398	682.8
299.789	676.4
300.179	692.8
300.57	699.2
300.961	676.2
301.352	682
301.742	692.4
302.133	691.2
302.524	688
302.915	692.8
303.307	668.4
303.698	703
304.089	696.8
304.48	688.6
304.872	701.6
305.263	687
305.655	690.6
306.046	692.4
306.438	700.2
306.829	675.4
307.221	698.2
307.613	696
308.005	696
308.397	704
308.789	708.2
309.181	720.2
309.573	703.2
309.965	704.6
310.357	686.4
310.749	704.4
311.142	685.4
311.534	681.4
311.926	691
312.319	688.8
312.711	677.2
313.104	701.8
313.497	684
313.889	730
314.282	708.6
314.675	712.2
315.068	690.6
315.461	694.8
315.854	720
316.247	696
316.64	682.2
317.033	682.6
317.405	699
317.798	683.2
318.192	686
318.585	672.4
318.979	684.2
319.372	679
319.766	681.2
320.16	694.2
320.553	707
320.947	713.8
321.341	683.4
321.735	684.6
322.129	672.2
322.523	716.6
322.917	677
323.311	698
323.705	693.6
324.099	696.8
324.494	708.6
324.888	704
325.282	684.4
325.677	703.2
326.071	693.8
326.466	696
326.861	692
327.255	696.8
327.65	702.2
328.045	708.4
328.44	686
328.835	692.8
329.23	681.4
329.625	717
330.02	675.8
330.415	711.8
330.81	691.4
331.206	676.6
331.601	673.8
331.996	686.8
332.37	703.4
332.766	668
333.161	712.6
333.557	687.8
333.953	680.6
334.348	1125.8
334.744	691.2
335.14	685.6
335.536	679.6
335.932	698.8
336.328	691.2
336.724	702.2
337.12	679.2
337.516	695.8
337.913	690.4
338.309	707.8
338.705	690.6
339.102	697.2
339.498	683.6
339.895	718.2
340.291	689.4
340.688	684.2
341.085	674.2
341.481	682.8
341.878	686.8
342.275	712
342.672	679.6
343.069	689
343.466	682.4
343.842	697.4
344.239	671.2
344.636	687
345.033	677
345.431	684.2
345.828	682.4
346.225	678
346.623	726.8
347.02	694.4
347.418	698.6
347.816	702.6
348.213	673.4
348.611	696.4
349.009	682.2
349.407	706
349.805	680.6
350.203	667.6
350.601	694
350.999	680.2
351.397	759
351.795	679
352.193	700
352.57	696
352.969	694
353.367	672.6
353.766	676.4
354.164	682.4
354.563	691.4
354.961	687.8
355.36	681.8
355.759	680.8
356.158	675.6
356.557	673
356.956	683.8
357.355	675
357.754	691.2
358.153	695
358.552	707
358.951	686.6
359.35	696.6
359.75	687.6
360.149	671.4
360.527	666.2
360.926	675.8
361.326	679.2
361.726	684.4
362.125	669
362.525	695.8
362.925	674
363.325	680
363.724	682
364.124	667.6
364.524	666.2
364.924	676.2
365.324	688.6
365.725	662.2
366.125	684
366.525	684.6
366.904	670.2
367.304	661.2
367.705	699.8
368.105	697
368.506	675.4
368.906	679
369.307	678.4
369.708	683.2
370.108	665.4
370.509	700
370.91	668.6
371.311	682.2
371.712	679.8
372.113	675.4
372.514	652
372.894	677
373.295	670.4
373.696	679.2
374.097	692.2
374.499	708.6
374.9	679.8
375.301	671.6
375.703	685.2
376.105	670.2
376.506	681.6
376.908	689.2
377.309	690.2
377.711	678
378.113	676
378.493	680.6
378.895	674
379.297	690.4
379.699	675.2
380.102	687.6
380.504	684.4
380.906	674.8
381.308	709.6
381.71	685.4
382.113	687.8
382.515	682.6
382.918	686.6
383.299	679.4
383.701	690.4
384.104	686
384.507	662.8
384.909	679.4
385.312	663.8
385.715	662.4
386.118	676.2
386.521	667.2
386.924	692.4
387.327	681.8
387.709	663
388.112	660.6
388.515	675.6
388.918	677.4
389.322	685
389.725	679.6
390.129	710.6
390.532	692
390.936	681.8
391.339	676
391.743	680.8
392.125	674.6
392.529	691.8
392.933	700.2
393.337	683
393.74	684.6
394.144	683.2
394.548	677.6
394.953	690.2
395.357	686.6
395.761	678.4
396.144	678.2
396.548	679.4
396.952	676.8
397.357	673.8
397.761	679.8
398.166	683
398.57	679.2
398.975	668.4
399.379	679.8
399.763	737.4
400.168	686.6
400.572	674
400.977	678.6
401.382	705
401.787	697
402.192	700
402.597	696.6
403.002	666.8
403.386	695.8
403.791	703.4
404.197	671.6
404.602	677
405.007	674.8
405.413	676.6
405.818	677.4
406.224	679.2
406.608	677.8
407.014	662
407.42	694.4
407.825	681.4
408.231	690.2
408.637	678
409.043	697.4
409.449	674.2
409.834	675.6
410.24	673.8
410.646	694.4
411.052	699.8
411.458	680.6
411.865	694
412.271	691
412.677	683.4
413.062	693.6
413.469	669.6
413.875	712.4
414.282	689.6
414.689	689.8
415.095	687.8
415.502	678
415.888	696.2
416.294	666.2
416.701	726.8
417.108	671
417.515	689.2
417.923	681.4
418.33	704.2
418.715	698.8
419.123	673.8
419.53	673.6
419.937	679.2
420.345	699.8
420.752	673.4
421.16	689
421.546	679.4
421.953	693.4
422.361	662.6
422.769	673.2
423.177	670.4
423.585	704.8
423.992	701.6
424.379	697.2
424.787	694.8
425.195	700.6
425.603	679.6
426.011	701.6
426.419	699
426.806	683.4
427.214	689.6
427.623	703.8
428.031	707
428.44	694.6
428.848	699
429.235	709
429.644	691
430.053	681.4
430.461	706.6
430.87	723
431.279	705.6
431.666	679.8
432.075	698.2
432.484	704.2
432.893	704.4
433.302	721.6
433.711	754.6
434.099	722.8
434.508	717.2
434.918	710.4
435.327	727.8
435.737	732.4
436.125	731.4
436.534	738.8
436.944	735.4
437.353	754.2
437.763	768.6
438.173	746
438.561	778.4
438.971	742.6
439.381	773.2
439.791	784.2
440.201	763.4
440.589	789
440.999	793.8
441.409	803.4
441.819	786
442.23	812.2
442.619	822.4
443.029	813.8
443.439	818.8
443.85	829.2
444.26	842.8
444.649	843.2
445.06	843.8
445.471	847.8
445.881	840.8
446.292	860.2
446.682	878
447.092	831.8
447.503	908.8
447.914	857.8
448.325	857
448.715	861.2
449.126	853.2
449.537	864
449.948	860.8
450.338	871.6
450.75	881.8
451.161	872.8
451.572	874
451.984	866
452.374	852.4
452.786	872.8
453.197	874.8
453.609	901
453.999	867.6
454.411	867.4
454.823	908
455.235	882.6
455.647	880.4
456.037	891.2
456.449	865
456.862	888.6
457.274	898.4
457.665	881
458.077	899
458.489	932.4
458.902	884
459.293	888.8
459.705	897.6
460.118	884.4
460.53	900.6
460.921	896.6
461.334	900.6
461.747	905.4
462.16	915.8
462.551	922.2
462.964	911
463.377	890.2
463.79	902
464.182	912
464.595	882.6
465.008	917.2
465.421	920.8
465.813	900.6
466.226	920.4
466.64	910.4
467.053	962.4
467.445	916.4
467.859	923
468.272	915
468.686	927.2
469.078	916.8
469.492	880.8
469.906	923.2
470.298	912.2
470.712	898.8
471.126	968
471.54	902.4
471.933	907.2
472.347	906.2
472.761	898.6
473.175	904.6
473.568	902.8
473.982	904.2
474.397	903
474.79	916.6
475.204	923
475.619	909.6
476.033	920.4
476.426	920.6
476.841	889
477.256	947.6
477.649	896.2
478.064	897.6
478.479	897.8
478.872	897
479.287	897.6
479.702	887.2
480.118	898.4
480.511	896.2
480.927	890.4
481.342	888.4
481.736	894.6
482.151	889.2
482.566	899.6
482.96	897
483.376	903
483.792	887.8
484.186	901
484.602	891
485.017	895.2
485.412	901.8
485.827	891
486.243	879.4
486.638	919.8
487.054	912.2
487.47	894.8
487.865	886.4
488.281	893.4
488.697	878.2
489.092	885.2
489.508	872.4
489.925	881.8
490.32	865.4
490.736	888.6
491.153	881.2
491.548	877.2
491.964	873.8
492.381	857.2
492.776	881.6
493.193	870
493.61	882.8
494.006	862.8
494.422	873
494.84	856.2
495.235	876.4
495.652	867.4
496.069	859.8
496.465	854.4
496.883	863.8
497.3	882.4
497.696	853.8
498.113	868
498.509	826.8
498.927	843.8
499.344	839.4
499.741	834.4
500.158	855.4
500.576	857.8
500.973	836
501.39	828
501.787	828
502.205	841
502.623	822
503.02	819.6
503.438	819.6
503.856	835.2
504.253	840.2
504.671	830.4
505.068	810.6
505.486	823.4
505.905	843
506.302	831
506.72	834
507.118	813.4
507.536	818.2
507.955	814.2
508.352	820.6
508.771	821.4
509.169	816
509.587	805.2
510.006	818.4
510.404	804.2
510.823	800.4
511.221	802
511.64	800
512.038	808
512.457	788.8
512.877	797.4
513.275	790.2
513.694	797.2
514.092	789
514.512	803.8
514.91	792.6
515.33	796.6
515.749	795.4
516.148	790.8
516.568	796.4
516.966	789
517.386	794.2
517.785	789.2
518.205	783.4
518.603	776.2
519.024	769.4
519.444	786.6
519.843	792.6
520.263	792.6
520.662	786.6
521.082	777.2
521.481	782
521.902	774.6
522.301	786
522.722	783.2
523.121	766.6
523.542	764
523.963	763.6
524.362	771.8
524.783	773
525.183	769.4
525.604	772.8
526.003	753
526.425	759
526.824	764.8
527.246	778.2
527.646	778.2
528.067	755
528.467	763.8
528.888	768.4
529.289	757.2
529.71	758
530.11	757.4
530.532	747.6
530.932	748.4
531.354	744.6
531.755	782.4
532.176	756
532.577	751
532.999	744.4
533.4	743.4
533.822	765.2
534.223	747.8
534.645	738.4
535.046	748.2
535.468	751.6
535.869	761.8
536.292	733.4
536.693	781.2
537.115	743.4
537.516	727.8
537.939	735
538.34	762.2
538.742	753.2
539.165	746.2
539.566	724
539.989	727
540.391	738.8
540.814	735.2
541.216	731
541.639	735.4
542.041	740.4
542.464	728.8
542.866	730.4
543.268	725.2
543.691	738
544.093	737.6
544.517	755.6
544.919	716.8
545.343	749.4
545.745	719.6
546.147	722.4
546.571	724.4
546.974	716.4
547.398	727
547.8	743.6
548.224	713.8
548.627	715.6
549.03	724.8
549.454	715.6
549.857	701.6
550.281	716
550.684	714.6
551.087	735.6
551.512	722.4
551.915	734.6
552.34	727
552.743	715.2
553.146	714.2
553.571	717.6
553.975	746.8
554.399	708.4
554.803	771.6
555.207	707.6
555.632	699
556.036	722.4
556.461	696.6
556.865	712.4
557.268	706
557.694	704.4
558.098	720.2
558.502	716.2
558.927	705.6
559.332	708
559.736	709.4
560.162	715.6
560.566	716.2
560.992	718.2
561.396	714.4
561.801	710.8
562.227	708
562.631	701.4
563.036	706.2
563.462	704.8
563.867	707.6
564.272	694
564.698	703.8
565.103	684.2
565.508	728.8
565.935	699
566.34	705
566.745	716.6
567.172	698.2
567.577	718
567.982	714.6
568.409	703.6
568.815	687.2
569.22	693.4
569.626	700.8
570.053	685.2
570.459	698
570.865	701.4
571.292	698.2
571.698	700
572.104	679.2
572.531	688.8
572.937	696.4
573.343	697.6
573.75	692.8
574.177	694
574.583	697.4
574.99	694.2
575.396	696.8
575.824	687.4
576.231	698.6
576.637	683
577.065	713.6
577.472	688.8
577.879	684
578.286	701.2
578.714	682.6
579.121	682
579.528	686.2
579.935	692.6
580.364	684.2
580.771	664
581.178	684.4
581.585	681.2
582.014	697.6
582.421	684
582.829	679.8
583.236	693.2
583.644	677
584.073	678.4
584.481	686.8
584.889	676.8
585.296	691.2
585.726	674.4
586.134	671.6
586.542	679.6
586.95	699.4
587.358	666.6
587.787	690.2
588.196	675
588.604	675.6
589.012	679.8
589.421	666.6
589.851	673
590.259	689.4
590.668	683.8
591.076	718.2
591.485	663.8
591.894	667
592.324	691.6
592.733	692
593.142	661.2
593.551	665.8
593.96	715.6
594.369	668.8
594.8	673.8
595.209	678.8
595.618	663
596.028	674.6
596.437	667.8
596.847	673.4
597.256	682
597.687	683
598.097	677.4
598.507	663.4
598.917	679
599.327	691.2
599.736	678.8
600.146	690.6
600.556	678.6
600.988	686.8
601.398	667.6
601.808	684.2
602.219	659.8
602.629	666.8
603.039	670.6
603.45	702.4
603.86	675.6
604.271	688
604.703	669.8
605.114	673
605.525	677.8
605.935	672.6
606.346	694.6
606.757	681.8
607.168	671.2
607.579	656.4
607.99	685.8
608.402	670.4
608.813	682.4
609.224	660.6
609.636	652.4
610.047	661.8
610.48	666.6
610.892	670.6
611.303	667.6
611.715	659
612.127	661
612.539	664.2
612.95	665.2
613.362	652.2
613.774	654
614.186	665.6
614.599	660.4
615.011	677.8
615.423	668.4
615.835	665
616.248	651.8
616.66	673.2
617.073	663.8
617.485	670.4
617.898	675
618.311	669.4
618.723	671.8
619.136	695.4
619.549	689
619.962	695.6
620.375	663.8
620.788	674.4
621.201	658.6
621.614	672.8
622.028	663.6
622.441	674.6
622.854	684.4
623.268	658
623.681	677.4
624.095	672.2
624.509	682.2
624.922	679.8
625.336	657.6
625.728	676.4
626.142	686
626.556	685.2
626.97	674.2
627.384	658.2
627.799	662.8
628.213	680.8
628.627	657.4
629.041	667.2
629.456	659.6
629.87	672.2
630.285	675.2
630.699	667.6
631.093	663.8
631.507	674
631.922	665.8
632.337	674
632.752	644.6
633.167	662.6
633.582	663
633.997	665.2
634.412	658
634.806	657.6
635.221	661.2
635.637	669.8
636.052	649
636.468	665.6
636.883	687
637.299	667.4
637.715	645.4
638.109	658.6
638.525	650.8
638.941	669.2
639.357	664.6
639.773	671
640.189	662
640.584	659.2
641	661.4
641.416	655.4
641.832	662.6
642.249	661
642.665	660.6
643.06	666.8
643.477	676.2
643.894	648.4
644.31	657.2
644.727	657
645.123	664.6
645.54	653.4
645.957	664.8
646.374	681.4
646.77	667.6
647.187	699.8
647.604	660
648.021	650.6
648.439	654.8
648.835	659.2
649.252	663.2
649.67	657.2
650.088	667.8
650.484	669
650.902	672.8
651.32	677.2
651.738	660.2
652.134	671
652.552	676
652.971	669.6
653.389	669.2
653.786	684.4
654.204	690.8
654.622	648.8
655.019	669.6
655.438	674.4
655.857	662.6
656.275	664.2
656.673	661
657.091	740.4
657.51	656.4
657.908	674.2
658.327	683.8
658.746	648.2
659.144	663.6
659.563	688
659.982	663.2
660.38	655.8
660.8	660.6
661.219	674.8
661.617	670.2
662.037	664.4
662.457	671.6
662.855	645.8
663.275	707.4
663.695	664.4
664.094	657.6
664.514	669.6
664.934	643
665.333	673.4
665.753	653.8
666.152	648.6
666.572	654.6
666.993	679
667.392	658.2
667.812	657.6
668.212	662.6
668.632	674.2
669.053	654
669.453	665.2
669.874	669.4
670.273	666.4
670.694	650.2
671.116	679.8
671.515	664
671.937	664.8
672.337	662.4
672.758	651.4
673.158	671
673.58	654.2
673.98	664
674.402	676.4
674.824	660.6
675.224	648
675.646	644
676.047	656.4
676.469	651.6
676.869	662.6
677.292	667
677.693	654.8
678.115	656.2
678.516	666.8
678.939	666.6
679.34	659
679.762	672.4
680.164	662.4
680.586	652.2
680.988	659
681.411	684.2
681.812	651.6
682.236	653.6
682.637	654.4
683.061	648.2
683.462	653.8
683.864	646
684.288	656.4
684.69	650
685.114	672.4
685.516	659.8
685.94	640.2
686.342	667.6
686.766	656
687.168	652
687.571	675.4
687.995	657
688.398	643.2
688.822	656.2
689.225	674.4
689.628	680.4
690.052	655
690.456	668
690.88	652.4
691.284	649.8
691.687	667.4
692.112	647.6
692.515	652.8
692.919	664.4
693.344	662.6
693.747	664
694.173	650
694.577	670.4
694.98	657.6
695.406	652.6
695.81	657.2
696.214	666.8
696.64	653.4
697.044	663.6
697.448	661.6
697.874	656.2
698.279	655.8
698.684	649.2
699.11	645.4
699.514	654.6
699.919	662
700.324	640.6
700.75	663
701.156	656.8
701.561	671.4
701.987	665.6
702.393	666.2
702.798	679
703.203	662
703.63	660.2
704.036	660.8
704.442	657.4
704.847	647.4
705.274	656
705.68	661.4
706.086	656.6
706.492	644.4
706.92	648.2
707.326	669.6
707.732	655.2
708.139	642.4
708.545	649.6
708.973	648
709.38	660.4
709.786	640.8
710.193	672.4
710.6	656.2
711.028	652.4
711.435	654.6
711.842	650.8
712.249	654.2
712.656	659.2
713.064	671.4
713.492	643
713.9	649.8
714.307	664.2
714.715	650.6
715.123	652.8
715.53	667.2
715.938	656.2
716.367	651.8
716.775	653.8
717.184	643.6
717.592	657.8
718	667.4
718.408	698.8
718.816	704.4
719.225	659.6
719.633	657.8
720.042	648
720.472	649.6
720.881	675.8
721.29	657
721.699	652.2
722.108	652.6
722.517	651.8
722.926	653.6
723.335	670.4
723.744	657.4
724.154	652.2
724.563	669
724.973	659.2
725.382	658
725.792	655.2
726.202	654
726.612	681
727.022	656.4
727.432	668
779.813	655.8
780.223	709.8
780.634	660.8
781.044	656
781.454	662.4
781.865	673.2
782.276	648
782.686	663.8
783.097	662
783.508	656.2
783.919	659
784.33	669.4
784.741	672.4
785.152	652.4
785.563	648.8
785.974	647.2
786.386	664.4
786.776	652
787.188	651.6
787.599	641.6
788.011	662.6
788.423	655.8
788.835	646
789.247	641.4
789.659	647.8
790.071	651.6
790.483	695.2
790.874	658.2
791.286	660.6
791.699	652.2
792.111	655.2
792.524	660.2
792.937	659.2
793.349	644.8
793.741	650.2
794.154	647.6
794.567	672.2
794.98	649.8
795.393	639.8
795.785	677
796.198	655.8
796.612	660.6
797.026	646.8
797.439	639.4
797.831	648.2
798.245	643
798.659	649
799.073	646.6
799.487	645.6
799.88	659.2
800.294	651.4
800.708	655.2
801.123	658.8
801.516	683.8
801.93	652.2
802.345	640.8
802.76	657
803.153	663
803.568	663
803.983	664.8
804.377	656.8
804.792	649.8
805.207	639.4
805.601	659.2
806.016	687
806.432	651.6
806.826	686.4
807.242	670.8
807.658	658
808.052	654
808.468	661.6
808.884	647.8
809.279	663.6
809.695	670.8
810.111	675
810.506	659.6
810.922	669.6
811.339	647.8
811.734	669.6
812.151	649.8
812.546	649
812.963	648.8
813.38	662.4
813.776	658.8
814.193	676.4
814.589	646.6
815.006	651.8
815.402	643.6
815.82	655.2
816.237	650
816.633	654
817.051	645.4
817.448	658.8
817.866	636.8
818.262	681
818.68	646.2
819.077	651.2
819.495	653.2
819.892	700.6
820.311	644
820.708	649.2
821.127	650
821.524	659.8
821.943	659.6
822.34	675.6
822.759	659.6
823.157	657.2
823.576	662.2
823.974	656.8
824.393	780.8
824.791	649.8
825.189	643.6
825.609	647.8
826.007	649
826.427	643.2
826.826	653.6
827.246	655.8
827.644	634.4
828.043	662.8
828.463	645.6
828.862	660
829.261	652.4
829.682	640.6
830.081	658.8
830.502	638.2
830.901	655.8
831.301	640
831.722	635.2
832.121	655.4
832.521	654.6
832.943	658.8
833.342	656.6
833.742	635.8
834.164	650.2
834.564	639
834.965	661.8
835.386	648.2
835.787	647
836.188	651.4
836.588	656.2
837.01	658.6
837.411	647.8
837.812	656.6
838.213	659.4
838.636	645.4
839.037	725.8
839.438	655.6
839.84	647.2
840.263	660
840.664	653.4
841.066	641.2
841.468	644.4
841.891	648.2
842.293	671.6
842.695	657.8
843.098	668.4
843.5	643
843.902	657
844.326	656.8
844.729	658.6
845.131	670.4
845.534	659.4
845.937	672.6
846.34	673
846.764	648.4
847.167	660.2
847.571	645.6
847.974	651.6
848.377	645.8
848.781	709.4
849.184	667
849.588	650.2
849.992	657
850.396	649.8
850.821	671.2
851.225	658.4
851.63	651.6
852.034	671.2
852.438	648.4
852.843	800.8
853.247	641.2
853.652	645.2
854.057	676.2
854.462	655.4
854.867	664
855.272	694
855.677	663
856.082	646
856.487	640
856.893	659.2
857.298	657
857.704	648.2
858.11	651.2
858.516	664.4
858.922	649
859.328	654
859.734	648.2
860.14	658.8
860.525	659.4
860.931	644.4
861.338	640.8
861.745	648.2
862.151	666.2
862.558	655.2
862.965	647
863.372	644
863.779	652.6
864.186	673.4
864.572	651.2
864.98	667.2
865.387	681
865.795	639.8
866.203	669.4
866.61	639.8
867.018	664.2
867.405	659.8
867.813	643.2
868.221	650
868.63	644.4
869.038	660.8
869.425	691.4
869.834	653.8
870.243	636.6
870.652	636.4
871.039	646
871.448	648.4
871.857	647.2
872.266	644.4
872.654	650
873.064	644.4
873.473	661.2
873.883	648
874.271	652.4
874.681	660.4
875.091	638.6
875.48	662.2
875.89	662.2
876.3	649.4
876.689	636.4
877.1	644.8
877.51	653.8
877.9	677.8
878.31	646.2
878.721	682.8
879.111	659.8
879.522	641.8
879.933	636.2
880.323	645.8
880.734	640.4
881.125	661.2
881.536	643.6
881.948	647.2
882.338	650.2
882.75	667.8
883.141	653.4
883.553	665.8
883.944	685.4
884.356	670.2
884.769	650
885.16	657.6
885.573	650.8
885.964	642.4
886.377	650.2
886.768	644
887.181	653.2
887.573	638.2
887.987	661.6
888.378	661.4
888.792	645.8
889.184	701
889.598	647
889.99	647.2
890.383	646.2
890.797	639.8
891.19	661
891.604	640.4
891.997	642.6
892.411	642.6
892.805	638.4
893.198	644.8
893.613	636.2
894.006	663.8
894.421	643.4
894.815	639
895.209	641.2
895.624	691.4
896.018	669.6
896.412	638.4
896.828	644.2
897.222	651.4
897.617	650.2
898.033	672.8
898.427	651
898.822	650.4
899.239	629.2
899.634	637
900.029	668.2
900.424	636.2
900.841	640
901.236	658.8
901.632	658.8
902.027	718.4
902.445	656.4
902.841	641.8
903.237	651
903.633	660.2
904.05	661.6
904.447	657.4
904.843	660.6
905.24	651
905.636	634.8
906.033	652
906.451	658.8
906.848	633.6
907.246	641.2
907.643	645.2
908.04	653
908.438	667
908.835	652.8
909.254	649.8
909.652	652.6
910.05	646.2
910.448	646.8
910.846	657.6
911.244	643.4
911.643	653.6
912.041	647.4
912.44	667
912.839	645.4
913.237	642
913.636	646
914.035	662.6
914.434	636
914.834	666
915.233	658.8
915.633	648.6
916.032	646.4
916.432	649.2
916.832	658.4
917.232	649
917.632	634.8
918.032	658
918.432	656
918.833	654.8
919.233	646.4
919.634	637.2
920.035	657.8
920.436	644.4
920.837	658.8
921.238	641.4
921.639	654
922.019	655.8
922.42	656.2
922.822	650.8
923.224	655.6
923.625	648
924.027	652.2
924.429	671.8
924.81	657.8
925.212	647.2
925.615	644.4
926.017	650.2
926.42	666.4
926.801	653.8
927.204	646.8
927.607	659.8
928.01	669.4
928.413	650.8
928.795	631.2
929.199	650.4
929.602	644.4
930.006	646
930.388	637.8
930.792	651.2
931.196	647.4
931.579	688.8
931.983	638.6
932.388	695.4
932.771	647.6
933.176	639
933.58	652.6
933.964	651.2
934.369	630.4
934.774	655.6
935.158	647.6
935.563	643.8
935.947	646
936.353	652.2
936.759	643.2
937.143	652.6
937.549	651.2
937.934	662.8
938.34	668.8
938.746	634.6
939.131	648.4
939.538	634.2
939.923	647.6
940.33	650.6
940.716	650.8
941.123	645.4
941.508	658.6
941.916	668.4
942.302	655.4
942.709	638.6
943.096	632.8
943.503	649.8
943.89	647.2
944.298	646.2
944.685	687.6
945.072	647.6
945.48	663
945.867	650
946.276	645.2
946.663	682
947.051	662.2
947.46	656.8
947.848	651.2
948.257	650.2
948.645	654
949.033	640.4
949.443	645.6
949.831	698.2
950.22	641
950.63	658
951.018	684.6
951.407	654.6
951.796	639.6
952.207	657.6
952.596	654.2
952.985	641.4
953.375	698.4
953.786	650.2
954.176	644.2
954.566	659.2
954.956	636.8
955.367	643.8
955.758	671.6
956.148	642.4
956.539	659.4
956.929	645.8
957.341	642.4
957.732	649.8
958.123	654.6
958.515	645.2
958.906	657.6
959.297	638
959.689	637.2
960.102	636.4
960.494	650.2
960.886	643
961.278	644.8
961.67	665
962.062	684.2
962.455	650.4
962.847	634.4
963.24	638.6
963.633	650.4
964.026	628.4
964.419	649.2
964.812	662.6
965.206	638.8
965.599	652.2
965.993	645.6
966.386	643.4
966.78	665.8
967.174	659.6
967.569	645.6
967.963	642.8
968.357	642.4
968.752	646.6
969.146	648.8
969.541	641.6
969.936	639.8
970.331	649.2
970.705	645.6
971.1	639.8
971.496	650
971.892	642.8
972.287	648.2
972.683	640.4
973.079	636.6
973.454	658.6
973.85	653.6
974.247	659
974.643	677.2
975.04	644.4
975.415	650.4
975.812	638.8
976.209	653
976.607	644
976.982	656.2
977.38	662
977.778	644.8
978.175	646.8
978.552	653.6
978.95	655.4
979.348	656
979.725	696.8
980.123	642.8
980.522	648.6
980.899	635.2
981.298	644.4
981.697	650.6
982.075	643.2
982.474	643.4
982.852	649.6
983.251	650.6
983.651	637
984.029	651.6
984.429	638.4
984.808	627.8
985.208	640.4
985.609	632
985.987	636
986.388	638.6
986.768	641
987.168	642.8
987.548	650.8
987.949	653
988.329	642.2
988.731	639.4
989.111	642.2
989.491	636.4
989.893	648.8
990.273	649.2
990.676	632.2
991.057	632.2
991.459	641.8
991.84	643.8
992.221	633.6
992.624	664.4
993.006	642.8
993.388	648
993.791	659.4
994.173	649.8
994.576	685
994.959	630.6
995.341	644.8
995.724	647.2
996.128	646.8
996.511	648.2
996.894	637.4
997.298	642
997.681	652.2
998.065	639.2
998.448	640.2
998.854	652.6
999.237	634.2
999.621	649.4
1000.01	672
1000.39	651.6
1000.8	635.2
1001.18	653.8
1001.56	653.6
1001.95	653.4
1002.33	655.8
1002.72	640.4
1003.13	650.8
1003.51	642.8
1003.9	645.2
1004.28	666
1004.67	645
1005.06	648
1005.44	674.8
1005.83	635.2
1006.21	641.4
1006.6	643.6
1006.99	658
1007.37	657.2
1007.76	664.4
1060.12	643.4
1060.51	637.6
1060.89	654
1061.28	660.6
1061.67	658
1062.06	647.6
1062.45	648.6
1062.83	647.6
1063.22	660.2
1063.61	693
1064	658
1064.39	649
1064.78	644.2
1065.14	655
1065.53	652.6
1065.92	652.8
1066.31	639.6
1066.7	652.4
1067.09	665.4
1067.46	655.6
1067.85	634.2
1068.24	641.2
1068.63	653.8
1069.02	652.4
1069.39	654.8
1069.78	644.2
1070.17	640
1070.57	634.2
1070.93	649
1071.33	638.4
1071.72	641
1072.11	635.8
1072.48	647
1072.87	649.8
1073.26	647.2
1073.64	641.6
1074.03	638.2
1074.4	637.2
1074.79	646.6
1075.19	644
1075.56	657.2
1075.95	649.2
1076.34	649.6
1076.72	648.6
1077.11	645
1077.48	663
1077.88	660.2
1078.25	645.2
1078.64	649.8
1079.02	638.6
1079.41	652.6
1079.78	643.2
1080.18	640.2
1080.55	713.2
1080.95	633.2
1081.32	633.8
1081.72	649.6
1082.09	641
1082.49	633.6
1082.86	635.8
1083.24	626.6
1083.63	626.6
1084.01	644.6
1084.38	648.6
1084.78	643.8
1085.16	642.6
1085.55	651.6
1085.93	659
1086.31	633.2
1086.7	676
1087.08	648.2
1087.46	635.6
1087.83	625.2
1088.23	648.2
1088.61	628.6
1088.99	647
1089.36	635.2
1089.76	648.4
1090.14	647.8
1090.52	636.4
1090.9	636.4
1091.27	653.2
1091.67	672
1092.05	655.4
1092.43	641
1092.81	643.6
1093.19	648.2
1093.57	640.6
1093.95	630.8
1094.35	662.2
1094.73	655.2
1095.11	635.2
1095.49	644
1095.87	642.4
1096.25	658.4
1096.63	656
1097.01	645.6
1097.39	653
1097.77	645.2
1098.15	642.6
1098.53	637.8
1098.91	639.8
1099.29	647.2
1099.68	663.4
1100.06	655
1100.44	637.2
1100.82	651.8
1101.18	643.2
1101.56	641.4
1101.95	638.8
1102.33	641
1102.71	648.4
1103.1	636.8
1103.48	628.2
1103.86	643.6
1104.22	647.8
1104.61	645.4
1104.99	642.4
1105.38	634.6
1105.76	651.6
1106.12	644
1106.51	680.6
1106.89	645.2
1107.26	643
1107.64	653
1108.03	634.6
1108.41	641.2
1108.78	640.8
1109.16	641.6
1109.55	644.6
1109.91	629.4
1110.3	626
1110.69	649.8
1111.05	639.6
1111.44	657.2
1111.8	639
1112.19	640.6
1112.58	649
1112.94	646.6
1113.33	648
1113.7	639.4
1114.09	632.8
1114.45	634.4
1114.84	648.6
1115.21	656.2
1115.6	640.8
1115.96	647.2
1116.35	648.2
1116.72	637.2
1117.11	652.8
1117.48	637
1117.85	637.8
1118.24	657.4
1118.6	638.8
1118.99	632.4
1119.36	639.4
1119.73	648.8
1120.12	637.6
1120.49	625.8
1120.86	654.8
1121.25	641.4
1121.62	629.4
1121.99	649.4
1122.38	654.8
1122.76	642.8
1123.13	637.4
1123.5	652
1123.89	649.4
1124.26	636.4
1124.63	643.6
1125	646
1125.4	624.4
1125.77	634.4
1126.14	622
1126.51	645.4
1126.88	653.6
1127.26	635.6
1127.63	634.2
1128.02	644.8
1128.4	635.6
1128.77	635.2
1129.14	650
1129.52	645.2
1129.89	644.2
1130.26	639.4
1130.64	632
1131.01	638.8
